Time (s),Voltage (V)
0,-20.57
0.1,-20.57
0.2,-20.29
0.3,-20.85
0.4,-20.85
0.5,-20.85
0.61,-20.57
0.71,-20.57
0.81,-20.57
0.91,-20.85
1.01,-20.85
1.11,-21.12
1.21,-20.85
1.31,-21.12
1.41,-20.57
1.51,-20.85
1.61,-20.57
1.72,-20.85
1.82,-20.57
1.92,-20.85
2.02,-20.01
2.12,-20.29
2.22,-20.57
2.32,-20.85
2.42,-20.29
2.52,-20.85
2.62,-20.29
2.72,-20.57
2.83,-20.57
2.93,-20.85
3.03,-20.85
3.13,-20.85
3.23,-20.29
3.33,-20.57
3.43,-20.29
3.53,-20.85
3.63,-20.29
3.73,-20.85
3.83,-20.57
3.94,-20.29
4.04,-20.57
4.14,-20.57
4.24,-20.57
4.34,-20.57
4.44,-20.57
4.54,-20.85
4.64,-20.29
4.74,-20.57
4.84,-19.73
4.94,-20.29
5.05,-20.57
5.15,-20.57
5.25,-20.57
5.35,-20.85
5.45,-20.85
5.55,-20.57
5.65,-20.57
5.75,-20.57
5.85,-20.01
5.95,-20.29
6.05,-20.57
6.16,-20.57
6.26,-20.57
6.36,-20.29
6.46,-20.57
6.56,-20.57
6.66,-20.85
6.76,-20.29
6.86,-20.85
6.96,-20.85
7.06,-3.03
7.16,-217.38
7.27,-234.92
7.37,-232.97
7.47,-231.03
7.57,-229.63
7.67,-228.8
7.77,-227.68
7.87,-226.85
7.97,-226.01
8.07,-225.46
8.17,-224.34
8.27,-223.79
8.38,-222.95
8.48,-222.12
8.58,-222.12
8.68,-221.28
8.78,-220.72
8.88,-220.45
8.98,-219.61
9.08,-219.05
9.18,-218.5
9.28,-218.22
9.39,-217.66
9.49,-217.38
9.59,-216.83
9.69,-216.83
9.79,-215.99
9.89,-215.71
9.99,-215.44
10.09,-215.44
10.19,-214.88
10.3,-214.32
10.4,-214.04
10.5,-213.77
10.6,-213.21
10.7,-213.21
10.8,-212.93
10.9,-212.65
11,-211.82
11.1,-212.1
11.2,-211.54
11.3,-210.98
11.41,-210.98
11.51,-210.7
11.61,-209.87
11.71,-210.42
11.81,-210.42
11.91,-209.59
12.01,-209.59
12.11,-208.75
12.21,-209.31
12.31,-208.2
12.42,-207.92
12.52,-208.2
12.62,-207.92
12.72,-207.64
12.82,-207.08
12.92,-207.08
13.02,-207.08
13.12,-206.53
13.22,-206.81
13.32,-206.53
13.43,-206.25
13.53,-206.25
13.63,-205.97
13.73,-205.69
13.83,-205.14
13.93,-205.14
14.03,-204.86
14.13,-204.58
14.23,-204.3
14.34,-204.02
14.44,-204.02
14.54,-203.74
14.64,-203.47
14.74,-203.47
14.84,-203.19
14.94,-203.74
15.04,-202.91
15.14,-202.91
15.24,-202.63
15.35,-202.63
15.45,-202.35
15.55,-202.35
15.65,-201.79
15.75,-201.79
15.85,-201.52
15.95,-201.24
16.05,-200.96
16.15,-201.24
16.25,-200.4
16.35,-200.4
16.46,-200.4
16.56,-200.12
16.66,-200.12
16.76,-199.85
16.86,-199.85
16.96,-200.12
17.06,-199.57
17.16,-199.01
17.26,-199.29
17.37,-199.29
17.47,-198.73
17.57,-198.73
17.67,-198.73
17.77,-198.45
17.87,-197.9
17.97,-198.18
18.07,-197.9
18.17,-197.62
18.27,-197.06
18.37,-197.34
18.48,-197.62
18.58,-197.06
18.68,-196.78
18.78,-197.34
18.88,-196.78
18.98,-196.78
19.08,-196.51
19.18,-196.51
19.28,-196.23
19.39,-196.23
19.49,-196.51
19.59,-195.67
19.69,-195.67
19.79,-195.11
19.89,-195.11
19.99,-194.84
20.09,-195.11
20.19,-195.11
20.29,-194.84
20.4,-194.56
20.5,-194.56
20.6,-194.28
20.7,-194
20.8,-194
20.9,-194.28
21,-194
21.1,-193.72
21.2,-193.72
21.3,-193.44
21.41,-193.17
21.51,-192.89
21.61,-192.89
21.71,-193.17
21.81,-192.89
21.91,-192.89
22.01,-192.61
22.11,-192.61
22.21,-192.61
22.32,-192.33
22.42,-192.05
22.52,-192.05
22.62,-191.77
22.72,-191.49
22.82,-191.77
22.92,-191.49
23.02,-191.49
23.12,-190.94
23.22,-191.22
23.32,-190.94
23.43,-190.66
23.53,-190.66
23.63,-190.66
23.73,-190.66
23.83,-190.38
23.93,-190.66
24.03,-190.38
24.13,-190.66
24.23,-190.38
24.33,-189.82
24.44,-189.82
24.54,-189.82
24.64,-189.27
24.74,-189.27
24.84,-189.27
24.94,-188.99
25.04,-188.99
25.14,-188.71
25.24,-188.99
25.35,-189.55
25.45,-188.71
25.55,-188.43
25.65,-188.43
25.75,-188.43
25.85,-188.43
25.95,-188.43
26.05,-187.88
26.15,-188.15
26.25,-187.88
26.35,-188.15
26.46,-187.32
26.56,-187.6
26.66,-187.32
26.76,-187.32
26.86,-187.04
26.96,-187.04
27.06,-187.04
27.16,-187.04
27.26,-187.04
27.37,-186.48
27.47,-186.48
27.57,-186.76
27.67,-186.48
27.77,-186.21
27.87,-186.21
27.97,-186.21
28.07,-186.48
28.17,-186.21
28.27,-185.65
28.38,-185.93
28.48,-185.37
28.58,-185.37
28.68,-185.37
28.78,-185.09
28.88,-185.09
28.98,-185.37
29.08,-185.37
29.18,-185.37
29.28,-185.09
29.39,-184.81
29.49,-184.54
29.59,-184.54
29.69,-184.81
29.79,-184.81
29.89,-184.54
29.99,-183.98
30.09,-184.26
30.19,-184.26
30.29,-183.98
30.4,-183.7
30.5,-183.98
30.6,-183.42
30.7,-183.14
30.8,-183.42
30.9,-183.42
31,-183.42
31.1,-183.42
31.2,-183.7
31.3,-183.14
31.41,-183.42
31.51,-183.14
31.61,-182.59
31.71,-182.86
31.81,-182.31
31.91,-182.31
32.01,-182.03
32.11,-182.03
32.22,-182.59
32.31,-181.75
32.42,-182.03
32.52,-182.03
32.62,-181.47
32.72,-182.03
32.82,-181.75
32.92,-181.47
33.02,-181.75
33.12,-181.75
33.22,-181.47
33.33,-181.47
33.43,-181.19
33.53,-181.19
33.63,-181.47
33.73,-180.64
33.83,-180.92
33.93,-181.19
34.03,-180.64
34.13,-180.64
34.24,-180.36
34.34,-180.36
34.44,-180.92
34.54,-180.36
34.64,-180.36
34.74,-180.08
34.84,-180.08
34.94,-179.8
35.04,-179.52
35.14,-180.08
35.25,-180.08
35.35,-179.8
35.45,-179.52
35.55,-179.8
35.65,-179.52
35.75,-179.25
35.85,-179.25
35.95,-178.97
36.05,-179.25
36.15,-179.25
36.25,-178.97
36.36,-178.97
36.46,-178.97
36.56,-178.69
36.66,-178.41
36.76,-178.41
36.86,-178.69
36.96,-178.13
37.06,-178.41
37.16,-178.41
37.27,-178.41
37.37,-177.85
37.47,-178.41
37.57,-177.85
37.67,-178.13
37.77,-177.85
37.87,-177.58
37.97,-177.3
38.07,-177.58
38.17,-177.02
38.28,-177.3
38.38,-177.85
38.48,-177.3
38.58,-177.3
38.68,-177.02
38.78,-177.3
38.88,-177.02
38.98,-177.02
39.08,-177.02
39.18,-176.74
39.29,-176.46
39.39,-176.18
39.49,-176.46
39.59,-176.46
39.69,-175.91
39.79,-175.91
39.89,-176.46
39.99,-176.18
40.09,-176.18
40.2,-175.91
40.29,-176.18
40.4,-175.91
40.5,-175.91
40.6,-175.63
40.7,-175.91
40.8,-175.91
40.9,-175.35
41,-175.35
41.1,-174.79
41.2,-175.35
41.31,-175.35
41.41,-175.07
41.51,-174.79
41.61,-174.79
41.71,-175.07
41.81,-175.07
41.91,-175.35
42.01,-175.07
42.11,-174.24
42.22,-174.51
42.31,-174.24
42.42,-174.51
42.52,-174.51
42.62,-174.79
42.72,-173.96
42.82,-173.96
42.92,-174.24
43.02,-173.68
43.12,-173.68
43.22,-173.96
43.33,-173.68
43.43,-173.68
43.53,-173.96
43.63,-173.68
43.73,-173.68
43.83,-173.4
43.93,-173.4
44.03,-173.12
44.13,-173.12
44.23,-173.4
44.34,-173.12
44.44,-173.12
44.54,-173.12
44.64,-173.4
44.74,-172.56
44.84,-172.84
44.94,-172.56
45.04,-172.56
45.14,-172.56
45.25,-172.84
45.35,-172.29
45.45,-172.56
45.55,-172.56
45.65,-172.29
45.75,-172.29
45.85,-172.29
45.95,-172.01
46.05,-172.01
46.15,-172.29
46.26,-172.01
46.36,-171.73
46.46,-171.45
46.56,-172.01
46.66,-171.73
46.76,-172.01
46.86,-171.45
46.96,-171.45
47.06,-171.73
47.16,-171.45
47.27,-171.45
47.37,-171.45
47.47,-171.45
47.57,-171.45
47.67,-171.17
47.77,-170.89
47.87,-170.89
47.97,-171.45
48.07,-170.89
48.18,-171.17
48.28,-170.89
48.38,-170.89
48.48,-170.89
48.58,-170.34
48.68,-170.06
48.78,-170.06
48.88,-170.34
48.98,-170.34
49.08,-170.62
49.18,-170.34
49.29,-169.78
49.39,-170.06
49.49,-170.06
49.59,-169.78
49.69,-169.5
49.79,-169.78
49.89,-169.78
49.99,-169.78
50.09,-169.5
50.19,-169.78
50.29,-169.78
50.4,-169.22
50.5,-169.5
50.6,-169.22
50.7,-169.22
50.8,-169.22
50.9,-169.22
51,-168.95
51.1,-169.22
51.21,-168.95
51.31,-169.22
51.41,-168.67
51.51,-168.67
51.61,-168.95
51.71,-168.95
51.81,-168.39
51.91,-168.39
52.01,-168.39
52.11,-168.39
52.21,-168.11
52.32,-168.11
52.42,-168.39
52.52,-168.11
52.62,-168.11
52.72,-168.67
52.82,-168.11
52.92,-168.11
53.02,-167.83
53.12,-168.11
53.22,-167.83
53.33,-167.83
53.43,-167.55
53.53,-167.83
53.63,-167.55
53.73,-167.55
53.83,-167.28
53.93,-167.55
54.03,-167
54.13,-167
54.24,-167
54.34,-167.28
54.44,-167
54.54,-167.28
54.64,-167.28
54.74,-167
54.84,-166.44
54.94,-167.28
55.04,-167
55.14,-167
55.25,-166.44
55.35,-166.16
55.45,-166.44
55.55,-166.72
55.65,-166.16
55.75,-166.44
55.85,-166.16
55.95,-165.88
56.05,-166.16
56.15,-166.16
56.26,-166.44
56.36,-166.16
56.46,-166.16
56.56,-165.88
56.66,-165.61
56.76,-165.33
56.86,-165.88
56.96,-165.61
57.06,-165.61
57.16,-165.33
57.27,-165.05
57.37,-165.33
57.47,-165.61
57.57,-165.05
57.67,-165.05
57.77,-165.33
57.87,-165.61
57.97,-165.05
58.07,-165.05
58.18,-165.33
58.28,-165.33
58.38,-165.05
58.48,-165.05
58.58,-164.77
58.68,-164.77
58.78,-165.05
58.88,-165.05
58.98,-164.77
59.08,-164.49
59.19,-164.21
59.29,-164.21
59.39,-164.49
59.49,-163.93
59.59,-164.49
59.69,-163.93
59.79,-164.21
59.89,-164.49
59.99,-164.21
60.09,-164.21
60.19,-164.21
60.3,-163.93
60.4,-164.21
60.5,-163.93
60.6,-163.66
60.7,-163.66
60.8,-163.93
60.9,-163.38
61,-163.66
61.1,-163.1
61.21,-163.1
61.31,-163.38
61.41,-163.38
61.51,-163.38
61.61,-163.1
61.71,-163.38
61.81,-163.38
61.91,-163.38
62.01,-163.38
62.11,-163.38
62.22,-163.1
62.32,-163.1
62.42,-162.82
62.52,-162.82
62.62,-162.54
62.72,-162.54
62.82,-162.82
62.92,-162.54
63.02,-162.54
63.12,-162.82
63.22,-162.26
63.33,-162.54
63.43,-162.26
63.53,-162.54
63.63,-162.54
63.73,-162.26
63.83,-162.26
63.93,-162.26
64.03,-161.71
64.13,-162.26
64.23,-161.71
64.34,-161.99
64.44,-161.71
64.54,-161.99
64.64,-161.71
64.74,-161.43
64.84,-161.71
64.94,-161.99
65.04,-161.99
65.14,-161.43
65.25,-161.43
65.35,-161.43
65.45,-161.43
65.55,-160.87
65.65,-161.43
65.75,-161.43
65.85,-161.43
65.95,-160.59
66.05,-160.87
66.15,-161.15
66.25,-161.15
66.36,-160.87
66.46,-160.59
66.56,-160.87
66.66,-160.87
66.76,-160.87
66.86,-161.15
66.96,-160.59
67.06,-160.59
67.16,-160.32
67.27,-160.32
67.37,-160.32
67.47,-160.32
67.57,-160.59
67.67,-160.32
67.77,-160.32
67.87,-160.04
67.97,-159.76
68.07,-160.32
68.17,-160.04
68.28,-159.48
68.38,-159.76
68.48,-160.04
68.58,-159.76
68.68,-159.76
68.78,-160.04
68.88,-160.32
68.98,-159.48
69.08,-159.76
69.18,-159.76
69.29,-160.04
69.39,-159.48
69.49,-159.48
69.59,-159.2
69.69,-159.48
69.79,-159.2
69.89,-159.2
69.99,-159.2
70.09,-159.2
70.19,-158.92
70.3,-159.2
70.4,-158.92
70.5,-158.92
70.6,-158.92
70.7,-158.65
70.8,-158.65
70.9,-158.65
71,-158.65
71.1,-158.92
71.2,-158.65
71.31,-158.65
71.41,-158.65
71.51,-158.09
71.61,-158.37
71.71,-158.37
71.81,-158.37
71.91,-158.65
72.01,-158.37
72.11,-158.09
72.21,-158.09
72.32,-158.65
72.42,-158.37
72.52,-158.37
72.62,-157.81
72.72,-158.09
72.82,-157.81
72.92,-158.09
73.02,-157.53
73.12,-157.53
73.23,-157.53
73.33,-157.53
73.43,-157.25
73.53,-157.53
73.63,-157.81
73.73,-157.25
73.83,-156.98
73.93,-157.53
74.03,-157.53
74.13,-157.25
74.23,-157.25
74.34,-157.25
74.44,-157.25
74.54,-157.25
74.64,-157.25
74.74,-156.7
74.84,-157.25
74.94,-156.7
75.04,-156.7
75.14,-157.25
75.25,-156.98
75.35,-156.7
75.45,-156.98
75.55,-156.7
75.65,-156.7
75.75,-156.98
75.85,-156.7
75.95,-156.42
76.05,-157.25
76.15,-156.14
76.26,-156.7
76.36,-156.42
76.46,-156.14
76.56,-155.86
76.66,-156.42
76.76,-156.14
76.86,-156.14
76.96,-156.42
77.06,-156.14
77.16,-156.42
77.27,-156.14
77.37,-156.14
77.47,-156.42
77.57,-156.14
77.67,-156.14
77.77,-155.86
77.87,-156.14
77.97,-155.58
78.07,-155.58
78.18,-155.58
78.28,-155.31
78.38,-155.03
78.48,-155.03
78.58,-155.58
78.68,-155.31
78.78,-155.86
78.88,-155.31
78.98,-155.31
79.08,-155.31
79.18,-155.31
79.29,-155.03
79.39,-154.75
79.49,-155.03
79.59,-155.03
79.69,-154.75
79.79,-154.75
79.89,-155.03
79.99,-154.75
80.09,-154.47
80.19,-154.75
80.3,-154.75
80.4,-154.75
80.5,-154.47
80.6,-154.47
80.7,-154.47
80.8,-154.47
80.9,-154.47
81,-154.47
81.1,-154.47
81.21,-153.91
81.31,-154.19
81.41,-154.19
81.51,-153.91
81.61,-154.19
81.71,-154.19
81.81,-153.91
81.91,-154.19
82.01,-154.19
82.11,-154.19
82.21,-153.63
82.32,-154.19
82.42,-153.91
82.52,-153.63
82.62,-153.63
82.72,-153.63
82.82,-153.63
82.92,-153.63
83.02,-153.36
83.12,-153.08
83.23,-152.8
83.33,-153.08
83.43,-153.36
83.53,-153.36
83.63,-153.36
83.73,-153.36
83.83,-153.36
83.93,-153.36
84.03,-153.08
84.13,-153.36
84.24,-153.08
84.34,-153.08
84.44,-153.08
84.54,-153.08
84.64,-152.8
84.74,-152.52
84.84,-152.8
84.94,-152.8
85.04,-152.52
85.14,-152.8
85.25,-152.8
85.35,-152.52
85.45,-152.52
85.55,-152.24
85.65,-152.24
85.75,-152.52
85.85,-152.8
85.95,-152.52
86.05,-152.24
86.16,-152.24
86.26,-151.96
86.36,-151.96
86.46,-151.96
86.56,-151.96
86.66,-151.96
86.76,-151.96
86.86,-151.69
86.96,-151.96
87.06,-151.96
87.16,-151.96
87.27,-151.69
87.37,-151.96
87.47,-151.96
87.57,-151.41
87.67,-151.96
87.77,-151.69
87.87,-151.69
87.97,-151.69
88.07,-151.41
88.18,-151.69
88.28,-151.41
88.38,-151.41
88.48,-151.41
88.58,-151.13
88.68,-151.41
88.78,-151.41
88.88,-151.69
88.98,-151.13
89.08,-151.13
89.19,-151.69
89.29,-151.13
89.39,-150.85
89.49,-151.13
89.59,-150.85
89.69,-151.13
89.79,-150.57
89.89,-150.85
89.99,-150.85
90.09,-150.85
90.2,-150.57
90.3,-150.57
90.4,-150.57
90.5,-150.57
90.6,-150.57
90.7,-150.29
90.8,-150.57
90.9,-150.57
91,-150.02
91.11,-150.57
91.21,-150.57
91.31,-150.85
91.41,-150.29
91.51,-150.29
91.61,-150.29
91.71,-150.02
91.81,-150.29
91.91,-150.02
92.01,-150.02
92.11,-150.02
92.22,-149.74
92.32,-149.74
92.42,-150.02
92.52,-149.74
92.62,-150.02
92.72,-150.02
92.82,-149.46
92.92,-149.74
93.02,-149.74
93.12,-149.74
93.23,-149.46
93.33,-149.46
93.43,-149.46
93.53,-149.74
93.63,-149.18
93.73,-149.18
93.83,-149.18
93.93,-149.18
94.03,-149.18
94.14,-149.18
94.24,-149.18
94.34,-148.9
94.44,-149.18
94.54,-149.46
94.64,-149.46
94.74,-149.18
94.84,-148.9
94.94,-148.9
95.04,-148.62
95.14,-148.62
95.25,-148.9
95.35,-148.62
95.45,-148.62
95.55,-148.9
95.65,-149.18
95.75,-148.9
95.85,-148.9
95.95,-148.62
96.05,-148.35
96.16,-148.9
96.26,-148.35
96.36,-148.62
96.46,-148.07
96.56,-148.9
96.66,-148.07
96.76,-148.62
96.86,-148.07
96.96,-148.07
97.06,-148.07
97.17,-148.35
97.27,-148.07
97.37,-148.07
97.47,-147.79
97.57,-148.07
97.67,-148.07
97.77,-148.07
97.87,-148.35
97.97,-148.07
98.07,-148.07
98.18,-147.23
98.28,-147.79
98.38,-147.79
98.48,-147.79
98.58,-147.51
98.68,-147.51
98.78,-147.79
98.88,-147.51
98.98,-148.07
99.09,-147.51
99.19,-147.79
99.29,-147.23
99.39,-147.23
99.49,-147.79
99.59,-147.51
99.69,-147.51
99.79,-146.95
99.89,-147.23
99.99,-146.95
100.1,-147.23
100.2,-146.95
100.3,-147.51
100.4,-146.95
100.5,-146.95
100.6,-147.51
100.7,-146.95
100.8,-146.68
100.9,-147.51
101,-146.68
101.11,-146.95
101.21,-146.68
101.31,-146.68
101.41,-146.95
101.51,-146.95
101.61,-146.4
101.71,-146.95
101.81,-146.68
101.91,-146.68
102.02,-146.4
102.12,-146.4
102.22,-146.68
102.32,-146.68
102.42,-146.95
102.52,-146.4
102.62,-146.4
102.72,-146.68
102.82,-146.4
102.93,-146.12
103.03,-146.68
103.13,-146.12
103.23,-145.84
103.33,-145.84
103.43,-145.84
103.53,-145.84
103.63,-145.84
103.73,-145.84
103.83,-145.84
103.94,-145.84
104.04,-146.12
104.14,-145.84
104.24,-145.84
104.34,-146.12
104.44,-145.84
104.54,-146.12
104.64,-145.28
104.74,-145.56
104.84,-145.84
104.95,-145
105.05,-145.28
105.15,-145.56
105.25,-145.56
105.35,-145.56
105.45,-145.56
105.55,-145.56
105.65,-145.56
105.75,-145.28
105.86,-145.56
105.96,-145.28
106.06,-145
106.16,-145
106.26,-145.28
106.36,-145
106.46,-144.73
106.56,-145.28
106.66,-144.73
106.77,-144.73
106.87,-144.73
106.97,-145
107.07,-144.73
107.17,-145
107.27,-145
107.37,-145
107.47,-145
107.57,-144.73
107.68,-144.73
107.78,-144.45
107.88,-144.73
107.98,-144.17
108.08,-144.45
108.18,-144.45
108.28,-144.45
108.38,-144.45
108.48,-143.89
108.58,-144.45
108.69,-144.73
108.79,-144.45
108.89,-144.45
108.99,-144.73
109.09,-144.45
109.19,-144.17
109.29,-143.89
109.39,-144.45
109.49,-144.17
109.59,-143.89
109.7,-144.17
109.8,-143.89
109.9,-143.33
110,-143.61
110.1,-143.61
110.2,-143.89
110.3,-143.61
110.4,-143.89
110.5,-143.61
110.61,-143.61
110.71,-143.89
110.81,-143.61
110.91,-143.33
111.01,-143.89
111.11,-143.89
111.21,-143.61
111.31,-143.33
111.41,-143.33
111.51,-143.33
111.62,-143.33
111.72,-143.06
111.82,-143.06
111.92,-143.33
112.02,-143.33
112.12,-143.06
112.22,-143.33
112.32,-143.33
112.42,-143.06
112.53,-143.06
112.63,-143.06
112.73,-143.33
112.83,-143.06
112.93,-143.06
113.03,-142.78
113.13,-142.78
113.23,-142.78
113.33,-143.06
113.43,-143.06
113.54,-143.06
113.64,-142.78
113.74,-142.78
113.84,-142.5
113.94,-143.06
114.04,-143.06
114.14,-142.78
114.24,-142.5
114.34,-142.5
114.45,-142.5
114.55,-142.5
114.65,-142.78
114.75,-142.22
114.85,-142.5
114.95,-142.5
115.05,-141.94
115.15,-142.22
115.25,-142.22
115.36,-141.94
115.46,-142.22
115.56,-142.22
115.66,-142.22
115.76,-142.22
115.86,-142.22
115.96,-141.66
116.06,-142.22
116.16,-142.22
116.26,-141.94
116.37,-141.66
116.47,-141.94
116.57,-141.94
116.67,-141.66
116.77,-141.94
116.87,-141.94
116.97,-141.66
117.07,-141.66
117.18,-141.94
117.27,-141.66
117.38,-141.66
117.48,-141.66
117.58,-141.39
117.68,-141.39
117.78,-141.39
117.88,-141.11
117.98,-140.83
118.08,-141.39
118.18,-141.11
118.29,-141.11
118.39,-141.39
118.49,-141.39
118.59,-141.39
118.69,-141.39
118.79,-141.11
118.89,-141.11
118.99,-141.39
119.09,-141.39
119.19,-141.11
119.3,-141.11
119.4,-141.11
119.5,-140.83
119.6,-141.11
119.7,-140.83
119.8,-141.11
119.9,-140.55
120,-140.27
120.11,-140.83
120.21,-141.11
120.31,-140.83
120.41,-140.55
120.51,-140.83
120.61,-140.55
120.71,-141.11
120.81,-140.83
120.91,-140.55
121.01,-140.27
121.12,-140.27
121.22,-140.27
121.32,-139.99
121.42,-139.99
121.52,-140.55
121.62,-140.27
121.72,-140.55
121.82,-140.55
121.92,-140.27
122.02,-140.27
122.13,-140.27
122.23,-139.99
122.33,-139.99
122.43,-140.27
122.53,-140.55
122.63,-139.99
122.73,-139.72
122.83,-139.99
122.93,-139.72
123.04,-139.44
123.14,-139.99
123.24,-139.72
123.34,-139.99
123.44,-139.99
123.54,-139.72
123.64,-139.72
123.74,-139.99
123.84,-139.72
123.94,-139.99
124.05,-139.16
124.15,-140.27
124.25,-139.72
124.35,-139.16
124.45,-139.72
124.55,-139.44
124.65,-139.16
124.75,-139.44
124.86,-139.44
124.96,-139.72
125.06,-139.16
125.16,-139.16
125.26,-139.44
125.36,-139.72
125.46,-139.72
125.56,-139.44
125.66,-139.16
125.76,-139.16
125.86,-139.44
125.97,-139.16
126.07,-138.6
126.17,-138.88
126.27,-138.6
126.37,-138.88
126.47,-138.6
126.57,-139.16
126.67,-138.88
126.77,-139.16
126.88,-138.6
126.98,-139.16
127.08,-138.88
127.18,-138.88
127.28,-139.16
127.38,-138.32
127.48,-138.88
127.58,-138.6
127.68,-138.32
127.79,-138.32
127.89,-138.6
127.99,-138.6
128.09,-138.6
128.19,-138.6
128.29,-138.6
128.39,-138.6
128.49,-138.32
128.59,-138.32
128.7,-138.32
128.8,-137.77
128.9,-138.32
129,-138.6
129.1,-138.32
129.2,-138.32
129.3,-138.6
129.4,-138.32
129.5,-138.05
129.61,-138.05
129.71,-137.77
129.81,-138.05
129.91,-138.05
130.01,-138.32
130.11,-137.77
130.21,-138.05
130.31,-137.77
130.41,-137.49
130.51,-138.05
130.62,-137.77
130.72,-137.49
130.82,-137.77
130.92,-137.49
131.02,-137.49
131.12,-138.05
131.22,-137.21
131.32,-137.49
131.42,-137.77
131.52,-137.49
131.63,-137.49
131.73,-137.49
131.83,-137.77
131.93,-137.77
132.03,-137.21
132.13,-137.21
132.23,-137.49
132.33,-137.21
132.43,-137.49
132.54,-137.21
132.64,-137.21
132.74,-136.93
132.84,-136.93
132.94,-137.21
133.04,-137.21
133.14,-137.21
133.24,-137.49
133.34,-137.21
133.45,-137.21
133.55,-136.93
133.65,-137.21
133.75,-136.93
133.85,-137.21
133.95,-137.21
134.05,-136.93
134.15,-136.65
134.25,-136.93
134.35,-136.65
134.46,-136.65
134.56,-136.93
134.66,-136.38
134.76,-136.38
134.86,-136.93
134.96,-137.21
135.06,-136.38
135.16,-136.65
135.26,-136.65
135.37,-136.65
135.47,-136.38
135.57,-136.65
135.67,-136.38
135.77,-136.1
135.87,-136.38
135.97,-136.1
136.07,-136.1
136.17,-136.38
136.27,-136.38
136.38,-136.38
136.48,-135.82
136.58,-136.38
136.68,-135.82
136.78,-136.38
136.88,-136.1
136.98,-136.1
137.08,-136.38
137.18,-136.38
137.29,-135.82
137.39,-135.82
137.49,-136.1
137.59,-136.1
137.69,-135.54
137.79,-135.82
137.89,-136.1
137.99,-135.82
138.09,-135.54
138.19,-135.26
138.3,-135.54
138.4,-135.54
138.5,-135.82
138.6,-136.1
138.7,-135.54
138.8,-135.54
138.9,-135.54
139,-135.54
139.11,-135.26
139.21,-135.26
139.31,-135.82
139.41,-135.54
139.51,-135.54
139.61,-135.54
139.71,-134.98
139.81,-135.54
139.91,-135.54
140.01,-135.26
140.11,-135.26
140.22,-135.54
140.32,-135.26
140.42,-135.26
140.52,-135.26
140.62,-134.98
140.72,-134.98
140.82,-134.98
140.92,-135.26
141.02,-134.7
141.13,-134.98
141.23,-135.26
141.33,-134.98
141.43,-135.26
141.53,-135.26
141.63,-134.7
141.73,-135.26
141.83,-135.54
141.93,-135.26
142.04,-134.7
142.14,-134.7
142.24,-134.98
142.34,-134.7
142.44,-134.98
142.54,-134.7
142.64,-134.98
142.74,-134.43
142.84,-134.43
142.95,-134.7
143.05,-134.7
143.15,-134.43
143.25,-134.15
143.35,-134.43
143.45,-134.15
143.55,-134.43
143.65,-134.43
143.75,-134.15
143.85,-134.43
143.96,-134.15
144.06,-134.43
144.16,-133.87
144.26,-133.87
144.36,-134.43
144.46,-134.15
144.56,-133.87
144.66,-134.15
144.76,-134.15
144.87,-134.43
144.97,-134.15
145.07,-133.59
145.17,-134.15
145.27,-134.15
145.37,-134.15
145.47,-133.31
145.57,-133.87
145.67,-134.15
145.77,-133.59
145.88,-133.59
145.98,-133.59
146.08,-133.87
146.18,-133.59
146.28,-133.59
146.38,-133.87
146.48,-133.31
146.58,-133.59
146.68,-133.87
146.79,-133.59
146.89,-133.59
146.99,-133.59
147.09,-133.31
147.19,-133.31
147.29,-133.59
147.39,-133.03
147.49,-133.31
147.59,-133.31
147.69,-133.31
147.8,-133.59
147.9,-133.31
148,-133.31
148.1,-133.59
148.2,-133.31
148.3,-133.31
148.4,-133.31
148.5,-133.03
148.6,-133.03
148.71,-132.76
148.81,-133.03
148.91,-132.76
149.01,-133.03
149.11,-133.03
149.21,-132.76
149.31,-132.76
149.41,-132.76
149.51,-133.03
149.61,-133.03
149.72,-132.76
149.82,-132.76
149.92,-132.76
150.02,-132.76
150.12,-132.76
150.22,-132.76
150.32,-133.03
150.42,-132.48
150.52,-132.48
150.63,-132.2
150.73,-132.48
150.83,-132.2
150.93,-132.48
151.03,-132.2
151.13,-132.48
151.23,-132.48
151.33,-132.48
151.43,-132.76
151.54,-132.48
151.63,-132.76
151.74,-132.2
151.84,-132.2
151.94,-132.2
152.04,-132.2
152.14,-132.48
152.24,-132.2
152.34,-132.48
152.44,-132.48
152.55,-132.2
152.65,-131.64
152.75,-132.2
152.85,-132.2
152.95,-131.92
153.05,-132.2
153.15,-131.92
153.25,-132.2
153.35,-131.92
153.46,-131.64
153.55,-131.36
153.66,-131.92
153.76,-131.92
153.86,-131.36
153.96,-131.92
154.06,-131.92
154.16,-131.64
154.26,-131.64
154.36,-131.64
154.47,-131.36
154.57,-131.92
154.67,-131.92
154.77,-131.92
154.87,-131.64
154.97,-131.92
155.07,-131.64
155.17,-131.36
155.27,-131.36
155.38,-131.64
155.48,-131.36
155.58,-131.36
155.68,-131.64
155.78,-130.81
155.88,-131.36
155.98,-131.36
156.08,-131.36
156.18,-130.81
156.28,-131.64
156.39,-131.36
156.49,-131.09
156.59,-131.36
156.69,-131.09
156.79,-131.36
156.89,-130.81
156.99,-131.36
157.09,-131.09
157.19,-130.81
157.3,-130.81
157.4,-131.09
157.5,-131.09
157.6,-130.81
157.7,-130.81
157.8,-131.09
157.9,-130.81
158,-130.81
158.1,-130.81
158.2,-130.53
158.31,-130.81
158.41,-131.09
158.51,-130.81
158.61,-130.81
158.71,-130.53
158.81,-130.81
158.91,-130.53
159.01,-130.81
159.11,-130.53
159.22,-130.25
159.32,-130.81
159.42,-130.81
159.52,-130.53
159.62,-130.25
159.72,-130.53
159.82,-130.53
159.92,-130.25
160.02,-130.25
160.12,-130.25
160.23,-130.25
160.33,-129.97
160.43,-130.53
160.53,-130.25
160.63,-130.53
160.73,-130.25
160.83,-129.97
160.93,-130.25
161.03,-129.97
161.13,-129.97
161.24,-129.97
161.34,-130.25
161.44,-130.25
161.54,-129.97
161.64,-129.42
161.74,-129.97
161.84,-129.97
161.94,-129.69
162.04,-130.25
162.15,-129.69
162.25,-129.42
162.35,-130.25
162.45,-129.97
162.55,-129.97
162.65,-129.69
162.75,-129.69
162.85,-129.69
162.96,-129.69
163.05,-129.97
163.16,-129.42
163.26,-129.42
163.36,-130.25
163.46,-129.97
163.56,-129.42
163.66,-129.69
163.76,-129.69
163.86,-129.42
163.97,-129.42
164.07,-129.69
164.17,-129.42
164.27,-129.42
164.37,-129.14
164.47,-129.42
164.57,-129.42
164.67,-129.69
164.77,-129.14
164.88,-129.42
164.98,-129.69
165.08,-129.42
165.18,-129.42
165.28,-129.42
165.38,-129.14
165.48,-128.86
165.58,-129.42
165.68,-129.42
165.78,-128.86
165.88,-128.58
165.99,-129.14
166.09,-129.14
166.19,-128.86
166.29,-128.86
166.39,-129.14
166.49,-128.58
166.59,-128.86
166.69,-128.86
166.8,-128.58
166.9,-128.86
167,-128.86
167.1,-128.58
167.2,-128.58
167.3,-129.14
167.4,-128.86
167.5,-128.86
167.6,-128.58
167.7,-128.58
167.8,-128.58
167.91,-128.3
168.01,-128.58
168.11,-128.86
168.21,-128.58
168.31,-128.3
168.41,-128.58
168.51,-128.58
168.61,-128.58
168.72,-128.3
168.82,-128.3
168.92,-128.02
169.02,-128.3
169.12,-128.58
169.22,-128.58
169.32,-128.02
169.42,-128.3
169.52,-128.3
169.62,-128.02
169.73,-128.02
169.83,-128.02
169.93,-128.58
170.03,-128.02
170.13,-128.02
170.23,-127.75
170.33,-128.58
170.43,-128.02
170.53,-128.02
170.63,-127.75
170.74,-128.02
170.84,-128.3
170.94,-127.47
171.04,-128.02
171.14,-127.75
171.24,-127.75
171.34,-127.75
171.44,-127.75
171.54,-127.75
171.65,-127.75
171.75,-127.75
171.85,-127.75
171.95,-127.47
172.05,-127.75
172.15,-127.75
172.25,-127.47
172.35,-127.47
172.45,-127.19
172.55,-127.47
172.66,-127.75
172.76,-127.19
172.86,-127.19
172.96,-127.47
173.06,-127.75
173.16,-127.47
173.26,-127.19
173.36,-127.47
173.47,-127.47
173.57,-127.19
173.67,-127.19
173.77,-126.91
173.87,-127.47
173.97,-127.19
174.07,-127.19
174.17,-126.91
174.27,-126.91
174.37,-127.19
174.48,-126.63
174.58,-126.91
174.68,-126.91
174.78,-127.19
174.88,-126.63
174.98,-126.91
175.08,-127.19
175.18,-126.91
175.28,-127.19
175.38,-127.19
175.49,-126.91
175.59,-126.63
175.69,-126.91
175.79,-126.91
175.89,-127.19
175.99,-126.63
176.09,-126.91
176.19,-126.91
176.29,-126.63
176.4,-127.19
176.5,-126.91
176.6,-126.91
176.7,-126.91
176.8,-126.91
176.9,-126.35
177,-126.91
177.1,-126.91
177.2,-126.63
177.3,-126.35
177.41,-126.63
177.51,-126.07
177.61,-126.35
177.71,-126.35
177.81,-126.35
177.91,-126.35
178.01,-126.07
178.11,-126.35
178.21,-126.63
178.32,-125.8
178.42,-126.35
178.52,-126.07
178.62,-126.35
178.72,-126.35
178.82,-126.07
178.92,-126.35
179.02,-126.07
179.12,-126.07
179.23,-126.07
179.33,-125.8
179.43,-126.35
179.53,-126.35
179.63,-126.07
179.73,-126.07
179.83,-126.07
179.93,-126.35
180.03,-125.8
180.13,-126.07
180.24,-126.07
180.34,-125.8
180.44,-125.8
180.54,-126.07
180.64,-125.52
180.74,-125.8
180.84,-126.07
180.94,-125.52
181.04,-125.52
181.15,-125.8
181.25,-125.8
181.35,-125.52
181.45,-125.24
181.55,-125.52
181.65,-125.8
181.75,-125.24
181.85,-125.8
181.95,-125.52
182.05,-125.8
182.16,-125.52
182.26,-125.8
182.36,-125.52
182.46,-125.52
182.56,-125.52
182.66,-125.52
182.76,-125.52
182.86,-125.52
182.96,-124.96
183.07,-125.8
183.17,-124.96
183.27,-125.52
183.37,-125.52
183.47,-125.24
183.57,-125.24
183.67,-124.68
183.77,-125.24
183.87,-124.96
183.97,-124.96
184.08,-125.24
184.18,-125.52
184.28,-124.68
184.38,-124.96
184.48,-124.96
184.58,-125.24
184.68,-124.68
184.78,-124.96
184.88,-124.96
184.99,-124.96
185.09,-124.96
185.19,-125.24
185.29,-124.4
185.39,-124.68
185.49,-124.68
185.59,-124.96
185.69,-124.68
185.79,-125.24
185.89,-124.96
186,-124.4
186.1,-124.4
186.2,-124.4
186.3,-124.4
186.4,-124.13
186.5,-124.68
186.6,-124.68
186.7,-124.4
186.8,-124.4
186.91,-124.68
187.01,-124.68
187.11,-124.68
187.21,-124.68
187.31,-124.68
187.41,-124.4
187.51,-124.96
187.61,-124.4
187.71,-124.13
187.81,-124.13
187.92,-124.4
188.02,-124.13
188.12,-124.68
188.22,-124.13
188.32,-124.13
188.42,-124.13
188.52,-123.85
188.62,-124.4
188.73,-124.4
188.83,-123.85
188.93,-124.13
189.03,-123.85
189.13,-124.13
189.23,-124.13
189.33,-123.85
189.43,-124.13
189.53,-124.13
189.63,-124.13
189.74,-123.85
189.84,-123.57
189.94,-124.13
190.04,-124.13
190.14,-124.13
190.24,-123.85
190.34,-123.85
190.44,-124.13
190.54,-124.13
190.65,-123.57
190.75,-123.57
190.85,-124.13
190.95,-123.85
191.05,-123.85
191.15,-123.01
191.25,-123.85
191.35,-123.57
191.45,-123.57
191.55,-123.85
191.66,-123.57
191.76,-123.29
191.86,-123.57
191.96,-123.57
192.06,-123.29
192.16,-123.29
192.26,-123.57
192.36,-123.29
192.46,-123.29
192.57,-123.29
192.67,-123.29
192.77,-123.29
192.87,-123.01
192.97,-123.57
193.07,-123.57
193.17,-123.29
193.27,-123.57
193.37,-123.29
193.47,-123.57
193.58,-123.29
193.68,-123.29
193.78,-123.01
193.88,-123.29
193.98,-123.29
194.08,-123.01
194.18,-123.29
194.28,-123.29
194.38,-123.01
194.49,-122.73
194.59,-123.01
194.69,-123.01
194.79,-122.73
194.89,-123.01
194.99,-122.73
195.09,-122.73
195.19,-123.01
195.29,-122.73
195.39,-122.73
195.5,-122.73
195.6,-122.46
195.7,-122.46
195.8,-122.73
195.9,-122.73
196,-122.73
196.1,-122.73
196.2,-122.46
196.3,-122.73
196.41,-121.9
196.51,-122.18
196.61,-123.01
196.71,-123.01
196.81,-123.01
196.91,-123.01
197.01,-122.46
197.11,-122.46
197.21,-122.46
197.31,-122.73
197.41,-122.46
197.52,-122.18
197.62,-122.18
197.72,-122.46
197.82,-122.18
197.92,-122.46
198.02,-122.18
198.12,-121.9
198.22,-122.18
198.33,-122.18
198.43,-122.18
198.53,-122.18
198.63,-122.46
198.73,-122.18
198.83,-122.18
198.93,-122.18
199.03,-121.9
199.13,-121.9
199.24,-121.9
199.34,-122.18
199.44,-122.18
199.54,-121.9
199.64,-122.46
199.74,-122.18
199.84,-121.9
199.94,-122.18
200.04,-121.9
200.14,-121.9
200.25,-121.9
200.35,-122.18
200.45,-121.9
200.55,-121.62
200.65,-121.9
200.75,-121.62
200.85,-121.9
200.95,-121.62
201.05,-121.9
201.16,-121.62
201.26,-121.9
201.36,-121.9
201.46,-121.62
201.56,-121.34
201.66,-121.9
201.76,-121.9
201.86,-121.62
201.96,-121.62
202.06,-121.62
202.17,-121.62
202.27,-121.9
202.37,-121.34
202.47,-121.62
202.57,-121.62
202.67,-121.62
202.77,-121.34
202.87,-121.34
202.97,-121.34
203.08,-121.34
203.18,-121.06
203.28,-121.34
203.38,-121.34
203.48,-121.34
203.58,-121.34
203.68,-121.62
203.78,-121.06
203.88,-121.34
203.98,-121.62
204.09,-121.06
204.19,-121.34
204.29,-121.34
204.39,-121.06
204.49,-120.79
204.59,-121.06
204.69,-121.34
204.79,-121.06
204.89,-120.79
205,-121.06
205.1,-121.06
205.2,-120.79
205.3,-121.06
205.4,-121.06
205.5,-121.06
205.6,-121.06
205.7,-121.06
205.8,-121.06
205.9,-120.79
206.01,-120.51
206.11,-120.79
206.21,-120.79
206.31,-120.51
206.41,-120.79
206.51,-120.51
206.61,-120.51
206.71,-120.79
206.81,-120.51
206.91,-120.51
207.02,-120.51
207.12,-120.79
207.22,-120.51
207.32,-120.79
207.42,-120.79
207.52,-120.51
207.62,-120.79
207.72,-120.51
207.82,-120.23
207.93,-120.51
208.03,-120.51
208.13,-120.23
208.23,-120.51
208.33,-120.79
208.43,-120.79
208.53,-120.23
208.63,-119.95
208.73,-120.51
208.84,-119.95
208.94,-120.51
209.04,-119.95
209.14,-120.23
209.24,-119.95
209.34,-119.95
209.44,-120.23
209.54,-120.23
209.64,-119.95
209.74,-120.51
209.85,-120.23
209.95,-119.95
210.05,-120.23
210.15,-120.23
210.25,-120.23
210.35,-120.23
210.45,-119.95
210.55,-119.95
210.65,-119.95
210.76,-119.95
210.86,-119.95
210.96,-119.67
211.06,-119.95
211.16,-119.95
211.26,-119.95
211.36,-119.67
211.46,-119.95
211.56,-119.67
211.66,-119.67
211.77,-119.67
211.87,-119.95
211.97,-119.95
212.07,-119.95
212.17,-119.95
212.27,-119.67
212.37,-119.39
212.47,-119.67
212.58,-119.67
212.68,-119.67
212.78,-119.39
212.88,-119.12
212.98,-119.39
213.08,-119.67
213.18,-119.12
213.28,-119.12
213.38,-119.95
213.48,-119.67
213.58,-119.12
213.69,-119.67
213.79,-119.39
213.89,-119.12
213.99,-119.12
214.09,-119.12
214.19,-118.84
214.29,-119.12
214.39,-119.39
214.5,-119.12
214.6,-118.84
214.7,-119.39
214.8,-119.12
214.9,-119.12
215,-119.39
215.1,-119.12
215.2,-119.12
215.3,-119.12
215.4,-119.39
215.51,-119.12
215.61,-118.84
215.71,-119.12
215.81,-119.12
215.91,-119.12
216.01,-118.84
216.11,-118.84
216.21,-118.84
216.31,-118.84
216.41,-118.84
216.52,-118.84
216.62,-118.56
216.72,-118.84
216.82,-118.84
216.92,-118.84
217.02,-118.84
217.12,-118.84
217.22,-119.12
217.32,-118.84
217.43,-118.84
217.53,-118.84
217.63,-118.84
217.73,-118.56
217.83,-118.56
217.93,-118.56
218.03,-118.84
218.13,-118.28
218.23,-118.84
218.34,-118.56
218.44,-118.56
218.54,-118.56
218.64,-118.56
218.74,-118.84
218.84,-118.28
218.94,-118.56
219.04,-118.56
219.14,-118.56
219.24,-118.56
219.35,-118
219.45,-118.28
219.55,-118.28
219.65,-118
219.75,-118.56
219.85,-118.28
219.95,-118.28
220.05,-118.56
220.15,-118.56
220.26,-118
220.36,-118
220.46,-118.56
220.56,-118
220.66,-118
220.76,-118.56
220.86,-118.28
220.96,-118.28
221.06,-118.28
221.16,-117.72
221.27,-117.72
221.37,-117.72
221.47,-118
221.57,-118.28
221.67,-118
221.77,-118
221.87,-118
221.97,-118.28
222.07,-118
222.18,-118
222.28,-117.72
222.38,-118.28
222.48,-118
222.58,-117.45
222.68,-117.45
222.78,-117.72
222.88,-117.72
222.98,-117.17
223.08,-117.72
223.19,-117.72
223.29,-117.45
223.39,-118
223.49,-117.45
223.59,-118
223.69,-117.45
223.79,-118
223.89,-117.45
223.99,-117.72
224.1,-117.72
224.2,-117.45
224.3,-117.45
224.4,-117.45
224.5,-117.45
224.6,-117.45
224.7,-117.17
224.8,-117.45
224.9,-117.72
225.01,-117.17
225.11,-116.89
225.21,-117.45
225.31,-117.45
225.41,-117.45
225.51,-117.45
225.61,-117.72
225.71,-117.45
225.81,-117.17
225.91,-117.17
226.02,-117.17
226.12,-117.17
226.22,-117.17
226.32,-116.61
226.42,-117.45
226.52,-116.89
226.62,-117.17
226.72,-116.89
226.82,-117.17
226.93,-117.17
227.02,-117.17
227.13,-117.45
227.23,-117.17
227.33,-117.17
227.43,-116.89
227.53,-116.89
227.63,-116.61
227.73,-116.89
227.83,-116.61
227.94,-117.17
228.04,-116.33
228.14,-116.61
228.24,-116.89
228.34,-116.89
228.44,-117.17
228.54,-116.33
228.64,-117.17
228.74,-116.89
228.85,-116.61
228.95,-116.61
229.05,-116.33
229.15,-116.89
229.25,-116.33
229.35,-116.33
229.45,-116.89
229.55,-116.61
229.65,-116.61
229.75,-116.61
229.86,-116.33
229.96,-116.61
230.06,-116.61
230.16,-116.89
230.26,-116.33
230.36,-116.61
230.46,-116.61
230.56,-116.61
230.66,-116.61
230.77,-116.61
230.87,-116.33
230.97,-116.05
231.07,-116.33
231.17,-116.33
231.27,-116.33
231.37,-116.33
231.47,-116.05
231.57,-115.77
231.67,-116.05
231.78,-116.33
231.88,-115.77
231.98,-116.05
232.08,-116.05
232.18,-116.61
232.28,-116.33
232.38,-116.05
232.48,-116.33
232.58,-116.33
232.69,-115.77
232.79,-116.05
232.89,-116.33
232.99,-116.05
233.09,-116.05
233.19,-116.05
233.29,-115.77
233.39,-115.5
233.49,-116.05
233.59,-116.05
233.7,-115.77
233.8,-116.05
233.9,-116.05
234,-115.77
234.1,-116.05
234.2,-115.77
234.3,-116.05
234.4,-116.33
234.5,-115.5
234.61,-115.77
234.71,-115.5
234.81,-115.77
234.91,-115.77
235.01,-115.5
235.11,-115.22
235.21,-116.05
235.31,-115.77
235.41,-115.5
235.51,-115.5
235.62,-115.77
235.72,-115.5
235.82,-115.77
235.92,-115.77
236.02,-115.22
236.12,-115.22
236.22,-116.05
236.32,-115.22
236.43,-114.94
236.52,-115.77
236.63,-115.5
236.73,-114.94
236.83,-115.5
236.93,-115.5
237.03,-114.94
237.13,-115.22
237.23,-115.22
237.33,-115.77
237.44,-115.22
237.54,-115.22
237.64,-115.22
237.74,-115.22
237.84,-115.22
237.94,-115.22
238.04,-115.22
238.14,-114.94
238.24,-114.94
238.35,-115.22
238.45,-114.94
238.55,-114.94
238.65,-114.94
238.75,-114.94
238.85,-114.94
238.95,-115.22
239.05,-114.94
239.15,-114.94
239.25,-114.66
239.36,-114.94
239.46,-114.94
239.56,-114.94
239.66,-114.94
239.76,-114.66
239.86,-114.38
239.96,-114.38
240.06,-114.94
240.16,-114.38
240.27,-114.66
240.37,-114.66
240.47,-114.38
240.57,-115.22
240.67,-114.66
240.77,-114.94
240.87,-114.94
240.97,-114.66
241.07,-114.66
241.17,-114.66
241.27,-114.66
241.38,-114.66
241.48,-114.38
241.58,-114.66
241.68,-114.38
241.78,-114.66
241.88,-114.1
241.98,-114.66
242.08,-114.38
242.19,-114.66
242.29,-114.66
242.39,-114.66
242.49,-114.94
242.59,-114.38
242.69,-114.38
242.79,-114.38
242.89,-114.1
242.99,-114.66
243.09,-114.94
243.2,-114.38
243.3,-114.38
243.4,-113.83
243.5,-113.83
243.6,-114.1
243.7,-114.1
243.8,-114.1
243.9,-114.38
244,-114.1
244.11,-114.38
244.21,-114.38
244.31,-114.38
244.41,-113.83
244.51,-114.38
244.61,-114.1
244.71,-113.83
244.81,-114.1
244.91,-114.38
245.01,-114.1
245.12,-113.83
245.22,-114.38
245.32,-113.83
245.42,-113.55
245.52,-113.55
245.62,-113.55
245.72,-113.83
245.82,-113.83
245.92,-114.38
246.02,-113.83
246.13,-114.1
246.23,-114.1
246.33,-114.1
246.43,-114.1
246.53,-113.83
246.63,-113.55
246.73,-113.55
246.83,-113.55
246.94,-113.55
247.04,-113.55
247.14,-113.27
247.24,-113.55
247.34,-113.83
247.44,-113.55
247.54,-113.55
247.64,-113.55
247.74,-113.83
247.84,-113.83
247.95,-113.83
248.05,-113.55
248.15,-112.99
248.25,-113.83
248.35,-113.27
248.45,-113.27
248.55,-113.55
248.65,-113.27
248.75,-113.27
248.86,-113.27
248.96,-113.27
249.06,-113.55
249.16,-113.27
249.26,-113.55
249.36,-113.27
249.46,-113.55
249.56,-113.55
249.66,-113.55
249.76,-113.55
249.87,-113.27
249.97,-113.27
250.07,-112.99
250.17,-113.27
250.27,-112.99
250.37,-113.27
250.47,-112.99
250.57,-113.27
250.67,-113.27
250.77,-113.55
250.88,-112.99
250.98,-112.71
251.08,-113.55
251.18,-112.71
251.28,-113.27
251.38,-113.27
251.48,-113.27
251.58,-112.99
251.68,-112.71
251.79,-112.99
251.89,-112.99
251.99,-112.71
252.09,-112.99
252.19,-112.43
252.29,-112.71
252.39,-112.71
252.49,-112.99
252.59,-112.99
252.7,-112.71
252.8,-112.99
252.9,-112.99
253,-112.99
253.1,-112.43
253.2,-112.71
253.3,-112.71
253.4,-112.16
253.5,-112.71
253.6,-112.71
253.71,-112.99
253.81,-112.43
253.91,-112.71
254.01,-112.71
254.11,-112.43
254.21,-112.71
254.31,-112.71
254.41,-112.43
254.51,-112.43
254.62,-112.71
254.72,-112.71
254.82,-112.43
254.92,-112.43
255.02,-112.71
255.12,-112.71
255.22,-112.43
255.32,-112.43
255.42,-112.43
255.52,-111.88
255.63,-112.16
255.73,-112.43
255.83,-112.16
255.93,-112.16
256.03,-112.71
256.13,-112.43
256.23,-112.43
256.33,-112.43
256.43,-112.16
256.54,-112.16
256.64,-112.16
256.74,-112.43
256.84,-112.16
256.94,-112.16
257.04,-112.16
257.14,-112.16
257.24,-111.88
257.34,-111.88
257.44,-111.88
257.55,-111.88
257.65,-112.16
257.75,-112.71
257.85,-112.43
257.95,-112.16
258.05,-111.88
258.15,-111.88
258.25,-111.88
258.36,-112.16
258.45,-112.16
258.56,-112.43
258.66,-111.88
258.76,-111.6
258.86,-111.88
258.96,-112.16
259.06,-111.88
259.16,-111.88
259.26,-111.88
259.36,-111.88
259.47,-111.32
259.57,-111.6
259.67,-111.6
259.77,-111.6
259.87,-111.88
259.97,-111.88
260.07,-111.32
260.17,-111.88
260.27,-111.88
260.38,-111.6
260.48,-112.16
260.58,-111.6
260.68,-111.6
260.78,-111.6
260.88,-111.32
260.98,-111.32
261.08,-111.88
261.18,-111.6
261.29,-111.6
261.39,-111.6
261.49,-111.6
261.59,-111.88
261.69,-111.6
261.79,-111.32
261.89,-111.6
261.99,-111.04
262.09,-111.32
262.2,-111.6
262.3,-111.32
262.4,-111.32
262.5,-111.04
262.6,-111.6
262.7,-111.04
262.8,-111.32
262.9,-111.04
263,-111.04
263.1,-111.32
263.2,-111.32
263.31,-111.32
263.41,-111.6
263.51,-111.32
263.61,-111.04
263.71,-111.04
263.81,-111.04
263.91,-111.04
264.01,-110.76
264.11,-111.32
264.22,-111.04
264.32,-111.32
264.42,-111.04
264.52,-111.04
264.62,-111.04
264.72,-111.04
264.82,-111.04
264.92,-110.49
265.02,-111.04
265.13,-110.76
265.23,-110.76
265.33,-110.76
265.43,-110.49
265.53,-110.76
265.63,-110.76
265.73,-110.76
265.83,-110.76
265.93,-110.49
266.04,-110.76
266.14,-110.49
266.24,-110.76
266.34,-110.76
266.44,-111.04
266.54,-110.49
266.64,-110.76
266.74,-110.76
266.84,-110.76
266.94,-110.76
267.05,-110.76
267.15,-110.49
267.25,-110.49
267.35,-110.76
267.45,-110.49
267.55,-110.76
267.65,-110.76
267.75,-110.49
267.85,-110.49
267.95,-110.49
268.06,-110.76
268.16,-110.49
268.26,-110.49
268.36,-110.49
268.46,-110.76
268.56,-110.49
268.66,-109.93
268.76,-110.49
268.86,-110.49
268.97,-110.21
269.07,-110.76
269.17,-110.21
269.27,-110.49
269.37,-110.21
269.47,-110.21
269.57,-110.49
269.67,-110.49
269.77,-110.21
269.88,-110.49
269.98,-110.21
270.08,-110.49
270.18,-109.93
270.28,-109.93
270.38,-110.21
270.48,-110.49
270.58,-110.49
270.68,-110.76
270.79,-109.93
270.89,-110.21
270.99,-110.21
271.09,-109.93
271.19,-109.65
271.29,-110.21
271.39,-110.21
271.49,-110.21
271.59,-109.93
271.69,-110.21
271.8,-110.21
271.9,-110.21
272,-109.93
272.1,-110.21
272.2,-109.65
272.3,-109.93
272.4,-109.65
272.5,-109.93
272.6,-109.65
272.7,-109.93
272.81,-109.65
272.91,-110.21
273.01,-109.65
273.11,-109.93
273.21,-110.21
273.31,-109.93
273.41,-109.93
273.51,-109.93
273.61,-110.21
273.72,-110.21
273.82,-109.93
273.92,-109.93
274.02,-109.65
274.12,-109.65
274.22,-109.93
274.32,-109.65
274.42,-109.65
274.52,-109.65
274.63,-110.21
274.73,-109.65
274.83,-109.65
274.93,-109.93
275.03,-109.65
275.13,-109.37
275.23,-109.37
275.33,-109.65
275.43,-109.37
275.53,-109.37
275.64,-109.65
275.74,-109.65
275.84,-109.37
275.94,-109.65
276.04,-109.65
276.14,-109.37
276.24,-109.37
276.34,-109.65
276.45,-109.37
276.55,-109.09
276.65,-109.65
276.75,-109.09
276.85,-109.37
276.95,-109.37
277.05,-109.09
277.15,-109.37
277.25,-109.37
277.35,-109.09
277.45,-109.37
277.56,-108.82
277.66,-109.37
277.76,-109.09
277.86,-109.09
277.96,-109.37
278.06,-109.37
278.16,-109.37
278.26,-109.09
278.36,-109.09
278.47,-109.09
278.57,-109.37
278.67,-109.09
278.77,-109.37
278.87,-108.82
278.97,-108.82
279.07,-109.09
279.17,-109.09
279.27,-109.37
279.38,-109.09
279.48,-108.54
279.58,-109.09
279.68,-109.09
279.78,-108.54
279.88,-108.82
279.98,-109.09
280.08,-108.82
280.18,-108.54
280.29,-109.09
280.39,-108.54
280.49,-108.26
280.59,-109.09
280.69,-108.54
280.79,-108.82
280.89,-108.82
280.99,-108.54
281.09,-108.54
281.19,-108.54
281.3,-108.82
281.4,-108.54
281.5,-108.54
281.6,-108.54
281.7,-108.54
281.8,-108.54
281.9,-108.54
282,-108.54
282.1,-108.26
282.2,-108.82
282.31,-108.26
282.41,-108.26
282.51,-108.54
282.61,-108.54
282.71,-108.26
282.81,-108.26
282.91,-108.26
283.01,-108.54
283.11,-108.26
283.22,-108.26
283.32,-108.54
283.42,-108.54
283.52,-108.26
283.62,-108.54
283.72,-108.26
283.82,-107.98
283.92,-108.54
284.02,-108.26
284.13,-108.26
284.23,-107.98
284.33,-108.26
284.43,-107.98
284.53,-107.98
284.63,-108.26
284.73,-108.54
284.83,-107.98
284.93,-107.98
285.03,-107.98
285.14,-108.26
285.24,-107.98
285.34,-108.26
285.44,-107.98
285.54,-107.7
285.64,-107.7
285.74,-107.98
285.84,-107.7
285.94,-107.42
286.05,-107.98
286.15,-107.7
286.25,-107.7
286.35,-107.98
286.45,-107.7
286.55,-107.98
286.65,-107.98
286.75,-107.98
286.85,-107.98
286.95,-107.98
287.05,-107.98
287.16,-107.7
287.26,-107.7
287.36,-108.26
287.46,-107.98
287.56,-107.7
287.66,-107.7
287.76,-107.42
287.86,-107.7
287.97,-107.7
288.07,-107.42
288.17,-107.7
288.27,-107.7
288.37,-107.7
288.47,-107.98
288.57,-107.42
288.67,-107.42
288.77,-107.42
288.88,-107.7
288.98,-107.42
289.08,-107.42
289.18,-107.7
289.28,-107.14
289.38,-107.42
289.48,-106.87
289.58,-107.42
289.68,-107.42
289.78,-107.7
289.89,-107.14
289.99,-107.7
290.09,-107.42
290.19,-107.7
290.29,-107.42
290.39,-107.42
290.49,-107.7
290.59,-107.7
290.69,-107.14
290.8,-107.14
290.9,-106.87
291,-107.14
291.1,-107.14
291.2,-107.14
291.3,-107.42
291.4,-107.42
291.5,-107.14
291.6,-107.14
291.7,-107.42
291.81,-107.14
291.91,-107.42
292.01,-107.42
292.11,-107.42
292.21,-106.87
292.31,-107.14
292.41,-107.14
292.51,-107.14
292.61,-106.87
292.72,-107.14
292.82,-106.59
292.92,-106.87
293.02,-107.14
293.12,-106.87
293.22,-106.59
293.32,-107.14
293.42,-107.14
293.52,-107.14
293.62,-107.14
293.73,-106.59
293.83,-107.14
293.93,-106.59
294.03,-107.42
294.13,-106.59
294.23,-106.31
294.33,-106.59
294.43,-106.59
294.54,-106.59
294.64,-106.87
294.74,-106.59
294.84,-106.31
294.94,-106.59
295.04,-106.87
295.14,-106.59
295.24,-106.87
295.34,-107.14
295.44,-106.59
295.54,-106.87
295.65,-106.59
295.75,-106.87
295.85,-106.59
295.95,-106.31
296.05,-106.59
296.15,-106.87
296.25,-106.87
296.35,-106.31
296.45,-106.87
296.55,-106.59
296.66,-106.31
296.76,-106.31
296.86,-106.31
296.96,-106.59
297.06,-106.87
297.16,-106.59
297.26,-106.87
297.36,-106.59
297.47,-106.31
297.57,-106.87
297.67,-106.31
297.77,-106.59
297.87,-106.59
297.97,-106.59
298.07,-106.31
298.17,-106.31
298.27,-106.59
298.38,-106.31
298.48,-106.31
298.58,-106.03
298.68,-106.03
298.78,-106.31
298.88,-106.31
298.98,-106.31
299.08,-106.31
299.18,-106.03
299.28,-106.03
299.39,-106.03
299.49,-106.03
299.59,-106.03
299.69,-106.03
299.79,-106.31
299.89,-106.31
299.99,-106.31
300.09,-106.03
300.19,-106.31
300.3,-106.31
300.4,-105.75
300.5,-105.75
300.6,-106.31
300.7,-106.03
300.8,-105.47
300.9,-105.75
301,-106.31
301.1,-105.75
301.2,-105.47
301.3,-106.03
301.41,-105.75
301.51,-105.47
301.61,-106.03
301.71,-106.03
301.81,-105.75
301.91,-105.75
302.01,-106.03
302.11,-106.03
302.22,-105.47
302.32,-105.75
302.42,-106.03
302.52,-105.47
302.62,-105.75
302.72,-105.75
302.82,-104.92
302.92,-105.75
303.02,-105.75
303.12,-105.47
303.23,-105.75
303.33,-105.75
303.43,-105.47
303.53,-105.75
303.63,-105.2
303.73,-105.75
303.83,-105.47
303.93,-105.75
304.03,-106.03
304.14,-105.2
304.24,-105.75
304.34,-105.75
304.44,-105.47
304.54,-105.47
304.64,-105.47
304.74,-105.47
304.84,-105.47
304.94,-105.47
305.05,-105.47
305.14,-105.47
305.25,-105.2
305.35,-105.2
305.45,-106.03
305.55,-105.75
305.65,-105.47
305.75,-105.2
305.85,-104.92
305.95,-105.2
306.05,-105.2
306.16,-105.2
306.26,-104.92
306.36,-104.92
306.46,-105.47
306.56,-105.47
306.66,-105.2
306.76,-105.2
306.86,-105.2
306.97,-105.47
307.07,-105.2
307.17,-104.64
307.27,-105.47
307.37,-105.47
307.47,-105.2
307.57,-105.2
307.67,-105.2
307.77,-105.2
307.87,-104.92
307.98,-104.92
308.08,-105.2
308.18,-104.92
308.28,-104.92
308.38,-105.2
308.48,-104.92
308.58,-104.92
308.68,-104.92
308.78,-104.92
308.89,-104.92
308.99,-104.92
309.09,-105.2
309.19,-104.92
309.29,-104.64
309.39,-104.64
309.49,-104.92
309.59,-104.64
309.69,-104.92
309.79,-104.92
309.9,-104.64
310,-104.92
310.1,-104.64
310.2,-104.92
310.3,-104.64
310.4,-104.64
310.5,-105.2
310.6,-104.92
310.7,-104.92
310.8,-104.64
310.91,-104.92
311.01,-104.92
311.11,-104.36
311.21,-104.64
311.31,-104.64
311.41,-104.92
311.51,-104.92
311.61,-104.92
311.71,-104.92
311.82,-104.36
311.92,-104.64
312.02,-104.64
312.12,-104.64
312.22,-104.36
312.32,-104.64
312.42,-104.36
312.52,-104.36
312.62,-104.36
312.73,-104.36
312.83,-104.36
312.93,-104.64
313.03,-104.64
313.13,-104.64
313.23,-104.64
313.33,-104.64
313.43,-104.36
313.53,-104.08
313.63,-104.64
313.74,-104.36
313.84,-104.36
313.94,-104.08
314.04,-104.08
314.14,-104.08
314.24,-104.08
314.34,-104.08
314.44,-104.08
314.55,-104.08
314.64,-104.08
314.75,-104.36
314.85,-104.36
314.95,-103.8
315.05,-104.36
315.15,-104.08
315.25,-104.36
315.35,-104.08
315.45,-104.08
315.55,-103.8
315.66,-104.08
315.76,-103.8
315.86,-104.08
315.96,-103.8
316.06,-104.08
316.16,-104.08
316.26,-103.53
316.36,-104.08
316.47,-104.08
316.57,-103.8
316.67,-103.8
316.77,-103.8
316.87,-104.08
316.97,-104.08
317.07,-104.08
317.17,-104.08
317.27,-104.08
317.37,-104.08
317.48,-103.8
317.58,-103.53
317.68,-103.53
317.78,-103.25
317.88,-103.8
317.98,-103.8
318.08,-103.8
318.18,-103.8
318.28,-103.25
318.39,-104.08
318.48,-103.53
318.59,-103.8
318.69,-103.8
318.79,-103.8
318.89,-103.25
318.99,-103.53
319.09,-103.53
319.19,-103.53
319.29,-103.53
319.39,-103.53
319.5,-103.8
319.6,-103.25
319.7,-103.8
319.8,-103.53
319.9,-103.8
320,-103.8
320.1,-103.53
320.2,-103.8
320.3,-103.53
320.41,-103.53
320.51,-103.53
320.61,-103.25
320.71,-103.25
320.81,-103.25
320.91,-103.25
321.01,-103.25
321.11,-103.53
321.21,-103.25
321.32,-102.97
321.42,-103.53
321.52,-103.25
321.62,-103.25
321.72,-103.25
321.82,-103.53
321.92,-103.25
322.02,-103.53
322.12,-103.25
322.23,-103.53
322.33,-103.25
322.43,-103.53
322.53,-102.97
322.63,-103.25
322.73,-103.25
322.83,-102.97
322.93,-103.25
323.03,-103.25
323.13,-103.25
323.23,-103.53
323.34,-102.97
323.44,-103.25
323.54,-102.97
323.64,-103.25
323.74,-102.97
323.84,-103.25
323.94,-102.97
324.04,-102.97
324.14,-102.69
324.25,-102.69
324.35,-102.69
324.45,-102.97
324.55,-102.69
324.65,-102.69
324.75,-102.97
324.85,-102.69
324.95,-102.69
325.05,-102.97
325.16,-102.97
325.26,-103.25
325.36,-103.25
325.46,-102.69
325.56,-102.69
325.66,-102.97
325.76,-102.97
325.86,-102.69
325.96,-102.41
326.07,-102.41
326.17,-102.41
326.27,-102.97
326.37,-102.97
326.47,-102.41
326.57,-102.69
326.67,-102.69
326.77,-102.69
326.87,-102.69
326.98,-102.69
327.08,-103.25
327.18,-102.69
327.28,-102.69
327.38,-102.69
327.48,-102.41
327.58,-102.41
327.68,-102.69
327.78,-102.69
327.88,-102.41
327.99,-102.69
328.09,-102.69
328.19,-102.69
328.29,-102.41
328.39,-102.41
328.49,-102.69
328.59,-102.41
328.69,-102.41
328.79,-102.41
328.89,-102.13
329,-102.41
329.1,-102.41
329.2,-102.69
329.3,-102.41
329.4,-102.13
329.5,-102.13
329.6,-102.41
329.7,-102.41
329.8,-102.69
329.91,-102.41
330.01,-102.13
330.11,-102.41
330.21,-102.41
330.31,-102.13
330.41,-102.69
330.51,-102.69
330.61,-102.13
330.71,-102.41
330.82,-102.41
330.92,-101.86
331.02,-102.41
331.12,-102.13
331.22,-102.13
331.32,-102.41
331.42,-102.13
331.52,-101.86
331.62,-102.41
331.72,-102.41
331.83,-102.13
331.93,-102.41
332.03,-102.41
332.13,-101.86
332.23,-102.13
332.33,-101.86
332.43,-102.13
332.53,-101.86
332.63,-101.86
332.73,-102.13
332.84,-101.58
332.94,-102.13
333.04,-101.86
333.14,-102.13
333.24,-101.86
333.34,-102.41
333.44,-101.86
333.54,-102.13
333.64,-102.13
333.75,-102.13
333.85,-101.58
333.95,-101.86
334.05,-101.58
334.15,-101.58
334.25,-101.58
334.35,-101.58
334.45,-101.86
334.55,-101.86
334.66,-101.86
334.76,-101.58
334.86,-101.58
334.96,-101.86
335.06,-102.13
335.16,-101.86
335.26,-101.58
335.36,-101.86
335.46,-101.58
335.57,-101.86
335.67,-101.58
335.77,-101.58
335.87,-101.02
335.97,-101.58
336.07,-101.86
336.17,-101.86
336.27,-101.58
336.37,-101.3
336.48,-101.58
336.58,-101.3
336.68,-101.58
336.78,-101.58
336.88,-101.02
336.98,-101.58
337.08,-101.58
337.18,-101.3
337.28,-101.58
337.38,-101.86
337.48,-101.58
337.59,-101.3
337.69,-101.3
337.79,-101.3
337.89,-101.58
337.99,-101.86
338.09,-101.3
338.19,-101.58
338.29,-101.3
338.39,-101.3
338.5,-101.58
338.6,-101.3
338.7,-101.58
338.8,-101.3
338.9,-101.58
339,-101.3
339.1,-101.02
339.2,-101.3
339.3,-101.3
339.41,-101.3
339.51,-101.3
339.61,-101.02
339.71,-101.02
339.81,-101.58
339.91,-101.3
340.01,-101.3
340.11,-101.3
340.21,-101.3
340.32,-101.02
340.42,-101.02
340.52,-101.02
340.62,-101.3
340.72,-101.02
340.82,-101.02
340.92,-101.02
341.02,-101.02
341.12,-101.3
341.22,-100.74
341.33,-101.02
341.43,-101.02
341.53,-101.3
341.63,-101.02
341.73,-101.02
341.83,-101.3
341.93,-101.02
342.03,-101.3
342.13,-101.02
342.23,-100.74
342.34,-101.02
342.44,-101.02
342.54,-100.74
342.64,-100.74
342.74,-100.74
342.84,-100.74
342.94,-100.46
343.04,-100.74
343.14,-100.74
343.25,-100.74
343.35,-100.74
343.45,-101.02
343.55,-101.02
343.65,-101.02
343.75,-100.74
343.85,-100.74
343.95,-100.74
344.05,-100.46
344.16,-100.74
344.26,-100.46
344.36,-100.74
344.46,-100.74
344.56,-100.74
344.66,-100.46
344.76,-100.46
344.86,-100.74
344.96,-100.74
345.07,-100.74
345.17,-100.46
345.27,-100.46
345.37,-100.46
345.47,-101.02
345.57,-100.19
345.67,-100.19
345.77,-100.74
345.87,-100.46
345.97,-100.19
346.08,-100.74
346.18,-100.46
346.28,-100.19
346.38,-100.46
346.48,-100.46
346.58,-100.46
346.68,-100.46
346.78,-100.74
346.88,-100.74
346.98,-100.19
347.08,-100.19
347.19,-100.19
347.29,-100.74
347.39,-100.19
347.49,-99.91
347.59,-99.91
347.69,-100.19
347.79,-100.46
347.89,-100.19
348,-100.74
348.1,-100.46
348.2,-99.91
348.3,-100.19
348.4,-100.46
348.5,-100.19
348.6,-100.19
348.7,-100.46
348.8,-99.91
348.91,-100.46
349.01,-100.19
349.11,-99.91
349.21,-99.91
349.31,-99.91
349.41,-100.19
349.51,-100.46
349.61,-99.91
349.71,-99.63
349.81,-100.19
349.92,-99.91
350.02,-99.63
350.12,-99.91
350.22,-100.19
350.32,-99.91
350.42,-99.91
350.52,-99.63
350.62,-100.19
350.72,-99.63
350.82,-99.91
350.92,-99.91
351.03,-99.91
351.13,-99.63
351.23,-100.46
351.33,-99.91
351.43,-99.63
351.53,-99.63
351.63,-99.63
351.73,-99.91
351.83,-99.63
351.94,-99.91
352.04,-99.63
352.14,-99.63
352.24,-99.91
352.34,-99.35
352.44,-99.91
352.54,-99.91
352.64,-99.63
352.74,-99.63
352.85,-99.63
352.95,-99.63
353.05,-99.63
353.15,-99.91
353.25,-99.35
353.35,-99.63
353.45,-99.91
353.55,-99.35
353.65,-99.63
353.75,-99.63
353.86,-99.07
353.96,-99.63
354.06,-99.63
354.16,-99.35
354.26,-99.35
354.36,-99.35
354.46,-99.63
354.56,-99.35
354.66,-99.07
354.76,-99.63
354.87,-99.63
354.97,-99.63
355.07,-99.63
355.17,-99.35
355.27,-99.07
355.37,-99.35
355.47,-99.35
355.57,-99.35
355.67,-99.35
355.77,-99.35
355.88,-98.79
355.98,-99.07
356.08,-99.35
356.18,-99.35
356.28,-99.63
356.38,-99.35
356.48,-99.35
356.58,-99.07
356.68,-99.35
356.79,-99.63
356.89,-99.63
356.99,-99.35
357.09,-99.35
357.19,-99.07
357.29,-99.07
357.39,-99.07
357.49,-98.79
357.59,-99.35
357.69,-99.07
357.79,-98.79
357.9,-99.07
358,-99.35
358.1,-98.79
358.2,-99.07
358.3,-98.79
358.4,-99.07
358.5,-99.07
358.6,-99.07
358.7,-99.35
358.8,-99.07
358.91,-99.07
359.01,-99.35
359.11,-98.79
359.21,-99.07
359.31,-99.07
359.41,-99.07
359.51,-99.07
359.61,-99.07
359.71,-98.52
359.82,-99.07
359.92,-99.63
360.02,-98.79
360.12,-98.52
360.22,-99.07
360.32,-99.07
360.42,-98.79
360.52,-99.07
360.62,-98.79
360.72,-98.79
360.83,-99.07
360.93,-98.79
361.03,-98.79
361.13,-98.79
361.23,-98.52
361.33,-98.79
361.43,-98.79
361.53,-98.52
361.63,-98.79
361.73,-99.35
361.83,-98.79
361.94,-98.52
362.04,-98.79
362.14,-99.07
362.24,-98.79
362.34,-98.24
362.44,-99.07
362.54,-98.24
362.64,-98.79
362.74,-98.24
362.85,-98.52
362.95,-98.79
363.05,-98.52
363.15,-98.52
363.25,-98.52
363.35,-98.79
363.45,-98.52
363.55,-98.52
363.65,-98.24
363.76,-98.52
363.86,-98.52
363.96,-97.96
364.06,-98.24
364.16,-98.24
364.26,-98.52
364.36,-98.24
364.46,-98.52
364.56,-98.52
364.66,-98.52
364.77,-98.52
364.87,-97.96
364.97,-98.24
365.07,-97.96
365.17,-98.24
365.27,-98.52
365.37,-98.24
365.47,-98.52
365.57,-97.68
365.67,-98.52
365.77,-97.96
365.88,-97.96
365.98,-97.96
366.08,-98.24
366.18,-98.24
366.28,-98.24
366.38,-97.68
366.48,-98.24
366.58,-97.96
366.69,-97.96
366.79,-98.52
366.89,-98.24
366.99,-97.96
367.09,-97.96
367.19,-98.52
367.29,-98.52
367.39,-97.96
367.49,-97.96
367.59,-97.96
367.69,-97.96
367.8,-97.96
367.9,-98.52
368,-98.24
368.1,-98.24
368.2,-98.24
368.3,-97.68
368.4,-97.96
368.5,-98.24
368.6,-97.96
368.7,-97.96
368.8,-98.24
368.91,-97.96
369.01,-97.68
369.11,-97.96
369.21,-97.68
369.31,-98.24
369.41,-97.68
369.51,-97.4
369.61,-97.68
369.72,-97.68
369.82,-97.96
369.92,-97.68
370.02,-97.96
370.12,-97.96
370.22,-97.96
370.32,-97.96
370.42,-97.96
370.52,-97.68
370.62,-97.68
370.73,-97.96
370.83,-97.68
370.93,-97.68
371.03,-97.12
371.13,-97.4
371.23,-97.68
371.33,-97.68
371.43,-97.68
371.53,-97.68
371.63,-97.68
371.73,-97.96
371.84,-97.68
371.94,-97.4
372.04,-97.68
372.14,-97.68
372.24,-97.4
372.34,-97.68
372.44,-97.4
372.54,-97.4
372.64,-97.68
372.75,-97.4
372.85,-97.12
372.95,-97.4
373.05,-97.12
373.15,-97.68
373.25,-97.4
373.35,-97.4
373.45,-97.68
373.55,-97.4
373.65,-97.68
373.76,-97.4
373.86,-97.12
373.96,-97.4
374.06,-97.12
374.16,-97.68
374.26,-97.4
374.36,-97.4
374.46,-97.12
374.56,-97.4
374.67,-97.12
374.77,-97.4
374.87,-97.12
374.97,-97.12
375.07,-97.4
375.17,-97.12
375.27,-97.12
375.37,-97.12
375.47,-97.4
375.57,-97.12
375.67,-97.4
375.78,-97.12
375.88,-96.84
375.98,-97.12
376.08,-96.84
376.18,-97.12
376.28,-97.12
376.38,-97.12
376.48,-97.12
376.58,-97.4
376.69,-97.4
376.79,-96.57
376.89,-96.84
376.99,-97.12
377.09,-97.4
377.19,-97.4
377.29,-97.12
377.39,-97.12
377.49,-97.12
377.59,-96.84
377.7,-97.4
377.8,-96.84
377.9,-97.12
378,-96.84
378.1,-96.84
378.2,-96.57
378.3,-97.12
378.4,-97.12
378.5,-96.57
378.6,-96.84
378.7,-97.12
378.81,-96.57
378.91,-97.12
379.01,-97.12
379.11,-96.84
379.21,-96.84
379.31,-97.12
379.41,-96.57
379.51,-96.57
379.61,-96.57
379.72,-96.84
379.82,-96.84
379.92,-96.84
380.02,-96.84
380.12,-96.84
380.22,-96.84
380.32,-96.84
380.42,-96.84
380.52,-96.84
380.62,-96.57
380.73,-96.57
380.83,-96.57
380.93,-96.84
381.03,-96.57
381.13,-96.29
381.23,-97.12
381.33,-96.57
381.43,-96.29
381.53,-96.57
381.63,-96.84
381.73,-96.57
381.84,-96.84
381.94,-96.57
382.04,-96.84
382.14,-96.57
382.24,-96.57
382.34,-96.84
382.44,-96.57
382.54,-96.29
382.64,-96.29
382.75,-96.29
382.85,-96.84
382.95,-96.57
383.05,-96.29
383.15,-96.29
383.25,-96.29
383.35,-96.29
383.45,-96.29
383.55,-96.57
383.65,-96.29
383.76,-96.57
383.86,-96.57
383.96,-96.84
384.06,-96.84
384.16,-96.01
384.26,-96.29
384.36,-96.57
384.46,-96.01
384.56,-96.29
384.67,-96.01
384.77,-96.01
384.87,-96.57
384.97,-96.01
385.07,-96.29
385.17,-96.57
385.27,-96.29
385.37,-96.01
385.47,-96.57
385.57,-96.29
385.67,-96.29
385.78,-96.29
385.88,-96.57
385.98,-96.29
386.08,-96.01
386.18,-96.29
386.28,-95.73
386.38,-95.73
386.48,-95.73
386.58,-96.29
386.69,-96.29
386.79,-96.29
386.89,-96.01
386.99,-95.73
387.09,-96.29
387.19,-96.01
387.29,-95.73
387.39,-96.01
387.49,-96.29
387.6,-96.01
387.7,-95.45
387.8,-95.73
387.9,-95.73
388,-96.01
388.1,-96.01
388.2,-96.29
388.3,-96.29
388.4,-96.01
388.5,-96.29
388.6,-95.73
388.71,-96.01
388.81,-96.29
388.91,-95.73
389.01,-95.73
389.11,-95.73
389.21,-95.73
389.31,-96.01
389.41,-95.73
389.51,-96.01
389.61,-96.01
389.72,-95.73
389.82,-95.73
389.92,-95.73
390.02,-95.45
390.12,-95.17
390.22,-95.73
390.32,-95.73
390.42,-96.01
390.52,-95.17
390.63,-95.45
390.73,-95.73
390.83,-95.45
390.93,-95.45
391.03,-95.73
391.13,-95.73
391.23,-95.73
391.33,-95.45
391.43,-95.45
391.53,-95.45
391.64,-95.17
391.74,-95.73
391.84,-95.45
391.94,-95.45
392.04,-95.45
392.14,-95.45
392.24,-95.73
392.34,-95.45
392.44,-95.73
392.55,-95.45
392.64,-95.73
392.75,-95.73
392.85,-94.9
392.95,-95.45
393.05,-95.45
393.15,-95.45
393.25,-95.45
393.35,-95.45
393.45,-94.9
393.55,-95.17
393.66,-94.62
393.76,-95.73
393.86,-95.45
393.96,-95.17
394.06,-95.17
394.16,-95.73
394.26,-95.73
394.36,-95.45
394.46,-95.17
394.57,-95.45
394.67,-95.17
394.77,-95.17
394.87,-94.9
394.97,-95.17
395.07,-95.17
395.17,-95.17
395.27,-95.45
395.37,-95.45
395.47,-95.45
395.58,-95.17
395.68,-95.45
395.78,-95.17
395.88,-94.62
395.98,-95.45
396.08,-95.17
396.18,-95.17
396.28,-95.17
396.38,-95.17
396.48,-94.9
396.58,-95.45
396.69,-95.17
396.79,-94.9
396.89,-95.17
396.99,-95.17
397.09,-94.9
397.19,-94.62
397.29,-95.17
397.39,-95.17
397.5,-94.9
397.6,-95.17
397.7,-95.17
397.8,-95.17
397.9,-94.62
398,-94.9
398.1,-94.62
398.2,-94.9
398.3,-94.62
398.4,-94.62
398.5,-94.9
398.61,-94.62
398.71,-94.62
398.81,-94.9
398.91,-94.9
399.01,-94.34
399.11,-95.17
399.21,-94.62
399.31,-95.17
399.41,-94.9
399.52,-94.9
399.62,-94.9
399.72,-94.9
399.82,-94.62
399.92,-94.62
400.02,-95.17
400.12,-94.9
400.22,-94.34
400.32,-94.62
400.42,-94.62
400.52,-94.34
400.63,-94.62
400.73,-94.62
400.83,-94.9
400.93,-94.9
401.03,-94.62
401.13,-94.34
401.23,-94.9
401.33,-94.34
401.43,-94.34
401.54,-94.9
401.64,-94.62
401.74,-94.62
401.84,-94.62
401.94,-94.62
402.04,-94.34
402.14,-94.62
402.24,-94.62
402.34,-94.34
402.44,-94.34
402.55,-94.9
402.65,-94.62
402.75,-94.34
402.85,-94.62
402.95,-94.62
403.05,-94.62
403.15,-94.62
403.25,-94.34
403.35,-94.34
403.45,-94.9
403.56,-94.62
403.66,-94.34
403.76,-94.62
403.86,-94.06
403.96,-94.06
404.06,-94.06
404.16,-94.06
404.26,-94.06
404.36,-94.06
404.46,-94.34
404.57,-94.62
404.67,-94.34
404.77,-94.34
404.87,-94.34
404.97,-94.06
405.07,-94.06
405.17,-94.34
405.27,-94.06
405.37,-94.34
405.48,-94.34
405.58,-94.06
405.68,-94.06
405.78,-94.34
405.88,-94.34
405.98,-93.78
406.08,-94.06
406.18,-94.34
406.28,-94.06
406.38,-94.06
406.48,-94.06
406.59,-94.34
406.69,-94.34
406.79,-93.78
406.89,-94.34
406.99,-94.34
407.09,-93.78
407.19,-94.06
407.29,-94.06
407.39,-94.06
407.5,-93.78
407.6,-93.78
407.7,-94.06
407.8,-93.78
407.9,-93.78
408,-93.78
408.1,-93.78
408.2,-94.34
408.3,-94.06
408.4,-94.06
408.51,-94.06
408.61,-94.06
408.71,-94.06
408.81,-94.06
408.91,-94.06
409.01,-94.06
409.11,-93.78
409.21,-93.5
409.31,-93.78
409.41,-93.5
409.52,-93.5
409.62,-93.78
409.72,-93.5
409.82,-93.5
409.92,-93.5
410.02,-93.78
410.12,-93.78
410.22,-94.06
410.32,-93.78
410.42,-93.78
410.52,-93.78
410.63,-94.06
410.73,-93.78
410.83,-93.78
410.93,-93.23
411.03,-93.78
411.13,-93.23
411.23,-93.5
411.33,-93.5
411.44,-93.78
411.54,-94.06
411.64,-93.5
411.74,-93.23
411.84,-93.78
411.94,-93.23
412.04,-93.5
412.14,-93.78
412.24,-93.23
412.34,-93.5
412.45,-93.78
412.55,-93.5
412.65,-93.5
412.75,-93.23
412.85,-93.5
412.95,-93.23
413.05,-93.5
413.15,-93.23
413.25,-93.5
413.35,-93.5
413.45,-93.5
413.56,-93.78
413.66,-93.23
413.76,-93.5
413.86,-93.23
413.96,-93.5
414.06,-93.5
414.16,-93.23
414.26,-93.23
414.36,-92.95
414.47,-93.23
414.57,-93.23
414.67,-93.23
414.77,-92.95
414.87,-93.23
414.97,-93.23
415.07,-93.23
415.17,-92.95
415.27,-93.23
415.37,-93.23
415.48,-93.23
415.58,-93.23
415.68,-92.67
415.78,-93.23
415.88,-92.95
415.98,-93.5
416.08,-92.95
416.18,-93.23
416.28,-93.23
416.39,-93.23
416.49,-93.23
416.59,-92.67
416.69,-92.95
416.79,-93.23
416.89,-93.5
416.99,-92.95
417.09,-93.23
417.19,-92.95
417.29,-93.23
417.39,-92.95
417.5,-92.95
417.6,-93.5
417.7,-93.23
417.8,-92.95
417.9,-93.23
418,-92.95
418.1,-92.95
418.2,-92.67
418.3,-92.95
418.41,-92.95
418.51,-92.95
418.61,-92.67
418.71,-92.95
418.81,-93.23
418.91,-92.95
419.01,-92.67
419.11,-92.95
419.21,-92.95
419.31,-92.95
419.42,-92.67
419.52,-92.95
419.62,-92.67
419.72,-92.95
419.82,-92.39
419.92,-92.67
420.02,-92.67
420.12,-92.67
420.22,-92.67
420.32,-92.67
420.42,-92.67
420.53,-92.95
420.63,-92.95
420.73,-92.67
420.83,-92.39
420.93,-92.67
421.03,-92.95
421.13,-93.23
421.23,-92.95
421.33,-92.67
421.44,-92.95
421.54,-92.39
421.64,-92.67
421.74,-92.67
421.84,-92.39
421.94,-92.67
422.04,-92.67
422.14,-92.67
422.24,-92.67
422.34,-92.39
422.45,-92.67
422.55,-92.39
422.65,-92.67
422.75,-92.39
422.85,-92.39
422.95,-92.11
423.05,-92.39
423.15,-92.67
423.25,-92.11
423.36,-92.95
423.45,-92.39
423.56,-92.67
423.66,-92.39
423.76,-92.39
423.86,-92.67
423.96,-92.39
424.06,-92.39
424.16,-92.67
424.26,-92.39
424.36,-92.39
424.47,-92.39
424.57,-92.67
424.67,-92.67
424.77,-92.11
424.87,-92.39
424.97,-92.11
425.07,-92.39
425.17,-92.39
425.27,-92.11
425.38,-92.39
425.48,-92.67
425.58,-92.11
425.68,-92.39
425.78,-92.39
425.88,-92.39
425.98,-92.39
426.08,-92.11
426.18,-92.11
426.29,-92.11
426.39,-92.39
426.49,-92.39
426.59,-92.11
426.69,-91.83
426.79,-92.11
426.89,-92.11
426.99,-92.11
427.09,-92.11
427.19,-92.39
427.29,-92.11
427.4,-92.11
427.5,-92.11
427.6,-92.39
427.7,-92.11
427.8,-92.11
427.9,-92.11
428,-92.11
428.1,-92.11
428.2,-91.83
428.3,-91.83
428.41,-91.83
428.51,-91.56
428.61,-91.28
428.71,-92.11
428.81,-92.11
428.91,-91.83
429.01,-92.11
429.11,-91.83
429.21,-92.11
429.32,-92.11
429.42,-91.56
429.52,-91.83
429.62,-92.11
429.72,-91.83
429.82,-91.83
429.92,-91.83
430.02,-91.83
430.12,-91.56
430.22,-91.83
430.33,-91.56
430.43,-91.83
430.53,-91.83
430.63,-91.56
430.73,-91.83
430.83,-91.56
430.93,-91.83
431.03,-92.11
431.13,-91.83
431.23,-91.83
431.33,-92.11
431.44,-91.83
431.54,-91.83
431.64,-91.56
431.74,-91.83
431.84,-92.11
431.94,-91.83
432.04,-92.11
432.14,-91.28
432.24,-91.56
432.35,-91.56
432.45,-91.56
432.55,-91.56
432.65,-91.56
432.75,-91.83
432.85,-91.56
432.95,-91.83
433.05,-91.28
433.15,-91.83
433.26,-91.83
433.36,-91.83
433.46,-91.83
433.56,-91.83
433.66,-91.28
433.76,-91.56
433.86,-91.56
433.96,-91.56
434.06,-91.56
434.16,-91.56
434.27,-91.56
434.37,-91.56
434.47,-91.56
434.57,-91.56
434.67,-91.28
434.77,-91.28
434.87,-91.56
434.97,-91.28
435.07,-91.28
435.17,-91.56
435.27,-91.28
435.38,-91.83
435.48,-91.56
435.58,-91.83
435.68,-91.56
435.78,-91.56
435.88,-91.56
435.98,-91.56
436.08,-91.28
436.18,-91.28
436.29,-91.56
436.39,-91.28
436.49,-91.56
436.59,-91.28
436.69,-91.28
436.79,-91.56
436.89,-91.56
436.99,-91
437.09,-91
437.19,-91.28
437.3,-91
437.4,-91.28
437.5,-91
437.6,-91
437.7,-91.28
437.8,-91.28
437.9,-91
438,-91.28
438.1,-91.28
438.2,-91
438.3,-91.28
438.41,-91
438.51,-91.28
438.61,-90.72
438.71,-91.28
438.81,-91.28
438.91,-91.28
439.01,-91
439.11,-91
439.22,-91.28
439.32,-91.28
439.42,-91
439.52,-91
439.62,-91.28
439.72,-91
439.82,-90.72
439.92,-91
440.02,-91.28
440.12,-90.72
440.22,-91.28
440.33,-90.72
440.43,-91
440.53,-91
440.63,-91.28
440.73,-91
440.83,-91
440.93,-90.72
441.03,-90.72
441.13,-90.72
441.23,-91
441.33,-90.72
441.44,-91.28
441.54,-90.72
441.64,-91
441.74,-90.72
441.84,-90.72
441.94,-91
442.04,-91
442.14,-90.72
442.25,-90.72
442.35,-91
442.45,-90.72
442.55,-90.72
442.65,-90.72
442.75,-90.72
442.85,-91.28
442.95,-90.72
443.05,-90.72
443.15,-91.28
443.26,-90.44
443.36,-90.44
443.46,-90.72
443.56,-91
443.66,-90.72
443.76,-90.44
443.86,-90.72
443.96,-90.72
444.06,-90.72
444.17,-90.16
444.27,-90.44
444.37,-91
444.47,-90.72
444.57,-90.44
444.67,-90.44
444.77,-91
444.87,-90.72
444.97,-90.44
445.07,-90.44
445.17,-90.44
445.28,-90.16
445.38,-90.44
445.48,-90.72
445.58,-90.72
445.68,-90.16
445.78,-90.44
445.88,-90.44
445.98,-91
446.08,-90.72
446.19,-90.16
446.29,-90.44
446.39,-90.72
446.49,-90.16
446.59,-90.44
446.69,-90.44
446.79,-90.44
446.89,-90.16
446.99,-90.16
447.09,-90.72
447.2,-90.44
447.3,-90.16
447.4,-90.44
447.5,-90.44
447.6,-90.16
447.7,-90.44
447.8,-89.89
447.9,-90.44
448,-90.44
448.1,-90.16
448.2,-90.44
448.31,-90.16
448.41,-90.16
448.51,-89.89
448.61,-89.89
448.71,-90.44
448.81,-90.16
448.91,-90.44
449.01,-89.89
449.11,-90.16
449.22,-90.16
449.32,-90.16
449.42,-90.44
449.52,-89.89
449.62,-90.72
449.72,-90.44
449.82,-90.16
449.92,-89.89
450.02,-89.89
450.12,-90.16
450.23,-89.89
450.33,-90.44
450.43,-90.16
450.53,-89.89
450.63,-89.89
450.73,-90.16
450.83,-89.89
450.93,-89.89
451.03,-90.16
451.13,-89.89
451.23,-89.89
451.34,-90.16
451.44,-90.16
451.54,-90.16
451.64,-90.16
451.74,-89.89
451.84,-90.44
451.94,-89.61
452.04,-89.89
452.14,-89.89
452.25,-89.89
452.35,-90.16
452.45,-89.89
452.55,-90.44
452.65,-90.16
452.75,-89.61
452.85,-89.89
452.95,-89.89
453.05,-89.89
453.15,-89.89
453.26,-89.89
453.36,-89.61
453.46,-89.61
453.56,-89.89
453.66,-89.61
453.76,-89.61
453.86,-89.89
453.96,-89.61
454.06,-89.89
454.17,-89.89
454.27,-89.89
454.37,-89.61
454.47,-90.16
454.57,-89.61
454.67,-89.61
454.77,-89.61
454.87,-89.89
454.97,-89.61
455.07,-89.61
455.17,-89.89
455.28,-89.61
455.38,-89.61
455.48,-89.61
455.58,-89.61
455.68,-89.61
455.78,-89.61
455.88,-89.33
455.98,-89.61
456.08,-89.61
456.19,-89.61
456.29,-89.61
456.39,-89.33
456.49,-89.89
456.59,-89.61
456.69,-89.33
456.79,-89.61
456.89,-89.33
456.99,-89.61
457.1,-89.33
457.2,-89.89
457.3,-89.61
457.4,-89.33
457.5,-89.33
457.6,-89.05
457.7,-89.33
457.8,-89.33
457.9,-89.33
458,-89.61
458.1,-89.61
458.21,-89.61
458.31,-89.33
458.41,-89.33
458.51,-89.05
458.61,-89.33
458.71,-89.61
458.81,-89.33
458.91,-89.61
459.01,-89.33
459.11,-89.61
459.22,-89.33
459.32,-89.05
459.42,-89.33
459.52,-89.33
459.62,-89.05
459.72,-89.33
459.82,-89.33
459.92,-89.05
460.02,-89.05
460.13,-89.33
460.23,-89.33
460.33,-89.05
460.43,-88.77
460.53,-89.33
460.63,-89.05
460.73,-89.33
460.83,-89.05
460.93,-89.05
461.03,-88.77
461.14,-89.05
461.24,-89.05
461.34,-89.05
461.44,-89.33
461.54,-88.77
461.64,-89.33
461.74,-89.05
461.84,-89.05
461.94,-89.05
462.05,-89.05
462.14,-89.05
462.25,-89.05
462.35,-89.33
462.45,-88.77
462.55,-89.05
462.65,-88.77
462.75,-89.05
462.85,-89.05
462.95,-88.77
463.05,-89.05
463.16,-89.05
463.26,-88.49
463.36,-89.05
463.46,-89.05
463.56,-88.77
463.66,-88.77
463.76,-88.77
463.86,-89.05
463.96,-89.05
464.07,-88.77
464.17,-89.05
464.27,-89.61
464.37,-89.05
464.47,-88.77
464.57,-88.77
464.67,-88.49
464.77,-88.77
464.87,-88.77
464.97,-89.05
465.08,-89.05
465.18,-88.77
465.28,-88.77
465.38,-88.77
465.48,-88.77
465.58,-88.77
465.68,-88.77
465.78,-88.77
465.88,-89.05
465.98,-88.77
466.08,-89.05
466.19,-88.77
466.29,-88.77
466.39,-88.49
466.49,-88.77
466.59,-89.05
466.69,-88.49
466.79,-88.49
466.89,-88.49
466.99,-88.77
467.1,-88.77
467.2,-88.49
467.3,-88.49
467.4,-88.49
467.5,-88.21
467.6,-88.49
467.7,-88.49
467.8,-88.21
467.9,-88.49
468,-88.49
468.11,-88.77
468.21,-88.49
468.31,-88.77
468.41,-88.49
468.51,-88.21
468.61,-88.77
468.71,-88.21
468.81,-88.49
468.91,-88.49
469.01,-88.21
469.11,-88.49
469.22,-88.77
469.32,-88.77
469.42,-88.49
469.52,-88.21
469.62,-89.05
469.72,-88.49
469.82,-88.21
469.92,-88.21
470.02,-88.49
470.13,-88.49
470.23,-88.21
470.33,-88.21
470.43,-88.21
470.53,-88.49
470.63,-88.49
470.73,-88.21
470.83,-88.21
470.93,-88.49
471.03,-88.49
471.14,-87.94
471.24,-88.21
471.34,-88.49
471.44,-88.21
471.54,-88.49
471.64,-88.49
471.74,-88.21
471.84,-88.49
471.94,-87.66
472.05,-88.49
472.15,-88.21
472.25,-87.66
472.35,-88.21
472.45,-88.49
472.55,-88.49
472.65,-88.49
472.75,-88.49
472.85,-88.21
472.95,-88.21
473.05,-88.21
473.16,-87.94
473.26,-88.77
473.36,-87.94
473.46,-88.21
473.56,-87.94
473.66,-87.94
473.76,-87.66
473.86,-88.49
473.96,-87.94
474.07,-87.66
474.17,-87.94
474.27,-87.94
474.37,-88.21
474.47,-87.94
474.57,-87.94
474.67,-87.94
474.77,-87.94
474.87,-87.94
474.98,-87.94
475.08,-87.94
475.18,-87.94
475.28,-87.94
475.38,-88.21
475.48,-87.94
475.58,-87.66
475.68,-87.94
475.78,-87.66
475.88,-87.66
475.98,-87.94
476.09,-87.94
476.19,-87.66
476.29,-87.94
476.39,-88.21
476.49,-87.94
476.59,-87.94
476.69,-87.94
476.79,-87.38
476.89,-88.21
477,-88.21
477.1,-87.94
477.2,-87.66
477.3,-87.66
477.4,-87.66
477.5,-87.66
477.6,-87.66
477.7,-87.66
477.8,-87.94
477.9,-87.94
478.01,-88.21
478.11,-87.66
478.21,-87.66
478.31,-87.66
478.41,-87.94
478.51,-87.94
478.61,-88.21
478.71,-87.94
478.81,-87.38
478.91,-87.94
479.02,-87.66
479.12,-87.94
479.22,-87.1
479.32,-87.94
479.42,-87.66
479.52,-87.66
479.62,-87.66
479.72,-87.94
479.82,-87.94
479.92,-87.66
480.02,-87.66
480.13,-87.66
480.23,-87.66
480.33,-87.94
480.43,-87.66
480.53,-87.66
480.63,-87.66
480.73,-87.94
480.83,-87.66
480.93,-87.38
481.04,-87.66
481.14,-87.38
481.24,-87.66
481.34,-87.66
481.44,-87.66
481.54,-87.1
481.64,-87.66
481.74,-87.66
481.84,-87.1
481.95,-87.38
482.05,-87.38
482.15,-87.66
482.25,-87.38
482.35,-87.1
482.45,-87.38
482.55,-87.66
482.65,-87.38
482.75,-87.1
482.85,-87.1
482.95,-87.38
483.06,-87.38
483.16,-87.38
483.26,-87.66
483.36,-87.1
483.46,-87.1
483.56,-87.38
483.66,-87.66
483.76,-87.66
483.86,-87.1
483.97,-87.38
484.07,-87.38
484.17,-87.38
484.27,-87.38
484.37,-87.38
484.47,-87.1
484.57,-87.38
484.67,-87.1
484.77,-87.1
484.87,-87.38
484.98,-87.38
485.08,-87.66
485.18,-87.38
485.28,-86.82
485.38,-86.82
485.48,-87.38
485.58,-87.38
485.68,-87.1
485.78,-87.1
485.88,-87.1
485.99,-87.1
486.09,-87.1
486.19,-87.1
486.29,-86.82
486.39,-86.82
486.49,-87.38
486.59,-87.1
486.69,-87.1
486.79,-87.38
486.89,-87.1
487,-86.82
487.1,-87.1
487.2,-87.1
487.3,-87.38
487.4,-87.1
487.5,-87.38
487.6,-87.38
487.7,-86.82
487.8,-87.1
487.91,-87.1
488.01,-86.82
488.11,-87.1
488.21,-86.82
488.31,-87.1
488.41,-86.82
488.51,-86.82
488.61,-87.1
488.71,-87.1
488.81,-87.1
488.91,-87.1
489.02,-86.82
489.12,-87.1
489.22,-86.82
489.32,-87.38
489.42,-86.82
489.52,-87.1
489.62,-86.82
489.72,-86.54
489.82,-87.1
489.92,-86.82
490.02,-86.27
490.13,-86.54
490.23,-86.82
490.33,-87.1
490.43,-86.82
490.53,-87.1
490.63,-86.82
490.73,-86.82
490.83,-86.54
490.94,-86.82
491.04,-86.82
491.14,-86.82
491.24,-86.54
491.34,-86.54
491.44,-86.82
491.54,-86.82
491.64,-86.54
491.74,-86.54
491.84,-86.54
491.95,-86.27
492.05,-86.82
492.15,-86.82
492.25,-86.82
492.35,-86.54
492.45,-86.54
492.55,-86.54
492.65,-86.82
492.75,-86.54
492.86,-86.54
492.95,-86.27
493.06,-86.82
493.16,-86.82
493.26,-86.27
493.36,-86.82
493.46,-86.54
493.56,-86.54
493.66,-86.54
493.76,-86.54
493.86,-86.54
493.97,-86.54
494.07,-86.54
494.17,-86.82
494.27,-86.54
494.37,-86.54
494.47,-86.54
494.57,-86.27
494.67,-86.82
494.77,-86.54
494.88,-86.54
494.98,-86.27
495.08,-85.71
495.18,-86.27
495.28,-86.27
495.38,-86.27
495.48,-86.54
495.58,-85.99
495.68,-86.54
495.78,-86.82
495.89,-86.27
495.99,-86.54
496.09,-86.54
496.19,-86.27
496.29,-86.27
496.39,-86.54
496.49,-86.27
496.59,-86.27
496.69,-85.99
496.79,-86.27
496.9,-86.27
497,-85.99
497.1,-85.99
497.2,-86.27
497.3,-85.99
497.4,-86.27
497.5,-86.54
497.6,-86.27
497.7,-86.54
497.8,-86.54
497.91,-86.27
498.01,-86.54
498.11,-85.99
498.21,-85.99
498.31,-86.27
498.41,-86.54
498.51,-86.27
498.61,-85.71
498.71,-85.71
498.81,-85.99
498.92,-85.99
499.02,-85.99
499.12,-85.71
499.22,-85.71
499.32,-86.27
499.42,-85.99
499.52,-85.99
499.62,-86.27
499.72,-86.27
499.83,-85.71
499.93,-85.99
500.03,-85.99
500.13,-86.27
500.23,-85.99
500.33,-85.71
500.43,-86.27
500.53,-85.71
500.63,-85.71
500.73,-85.99
500.83,-86.27
500.94,-85.99
501.04,-85.99
501.14,-86.27
501.24,-85.99
501.34,-85.71
501.44,-85.71
501.54,-85.99
501.64,-85.99
501.74,-86.27
501.85,-86.27
501.95,-85.71
502.05,-85.99
502.15,-86.27
502.25,-85.99
502.35,-85.71
502.45,-85.43
502.55,-85.71
502.65,-85.99
502.75,-85.71
502.86,-85.71
502.96,-85.99
503.06,-85.71
503.16,-85.99
503.26,-85.71
503.36,-85.99
503.46,-85.71
503.56,-85.71
503.66,-85.43
503.76,-85.71
503.87,-85.71
503.97,-85.99
504.07,-85.43
504.17,-85.99
504.27,-85.43
504.37,-85.71
504.47,-85.71
504.57,-85.43
504.67,-85.71
504.77,-85.43
504.88,-85.71
504.98,-85.71
505.08,-85.99
505.18,-85.71
505.28,-85.71
505.38,-85.43
505.48,-85.99
505.58,-85.43
505.68,-85.15
505.79,-85.71
505.89,-85.43
505.99,-85.43
506.09,-85.15
506.19,-85.71
506.29,-85.99
506.39,-85.43
506.49,-85.43
506.59,-85.99
506.69,-85.71
506.8,-85.43
506.9,-85.71
507,-85.71
507.1,-85.43
507.2,-85.43
507.3,-85.71
507.4,-85.71
507.5,-85.71
507.6,-85.43
507.7,-85.71
507.8,-85.15
507.91,-85.71
508.01,-85.43
508.11,-85.43
508.21,-85.43
508.31,-85.15
508.41,-85.15
508.51,-85.15
508.61,-85.43
508.72,-85.15
508.82,-85.15
508.92,-85.43
509.02,-85.43
509.12,-85.71
509.22,-85.43
509.32,-85.43
509.42,-85.43
509.52,-85.15
509.62,-85.15
509.72,-85.15
509.83,-85.15
509.93,-85.15
510.03,-84.87
510.13,-85.71
510.23,-85.15
510.33,-85.15
510.43,-85.43
510.53,-85.15
510.63,-85.15
510.73,-85.43
510.83,-85.43
510.94,-85.15
511.04,-84.87
511.14,-85.15
511.24,-85.15
511.34,-85.15
511.44,-85.15
511.54,-85.15
511.64,-84.87
511.75,-85.15
511.85,-85.15
511.95,-84.87
512.05,-85.71
512.15,-85.15
512.25,-85.43
512.35,-85.15
512.45,-85.15
512.55,-85.15
512.65,-84.87
512.76,-85.15
512.86,-85.15
512.96,-85.15
513.06,-84.87
513.16,-84.87
513.26,-85.15
513.36,-84.87
513.46,-85.15
513.56,-85.43
513.66,-84.87
513.77,-84.87
513.87,-84.87
513.97,-85.15
514.07,-84.87
514.17,-85.15
514.27,-85.15
514.37,-85.15
514.47,-84.87
514.57,-84.87
514.67,-85.15
514.78,-84.87
514.88,-84.87
514.98,-85.15
515.08,-84.87
515.18,-84.87
515.28,-84.6
515.38,-84.6
515.48,-84.87
515.58,-85.15
515.69,-84.87
515.78,-84.87
515.89,-84.87
515.99,-84.6
516.09,-84.6
516.19,-84.6
516.29,-84.87
516.39,-84.87
516.49,-84.6
516.59,-84.87
516.7,-84.6
516.8,-84.87
516.9,-84.6
517,-84.32
517.1,-84.6
517.2,-84.87
517.3,-84.32
517.4,-84.32
517.5,-84.6
517.6,-84.87
517.71,-84.6
517.81,-84.6
517.91,-85.15
518.01,-84.87
518.11,-84.32
518.21,-84.32
518.31,-84.87
518.41,-84.6
518.51,-84.32
518.61,-84.87
518.72,-84.6
518.82,-84.32
518.92,-84.32
519.02,-84.87
519.12,-84.6
519.22,-84.32
519.32,-84.6
519.42,-84.6
519.52,-84.6
519.62,-84.32
519.73,-84.6
519.83,-84.87
519.93,-84.32
520.03,-84.32
520.13,-84.32
520.23,-84.32
520.33,-84.04
520.43,-84.32
520.53,-84.32
520.63,-84.6
520.73,-84.6
520.84,-84.32
520.94,-84.32
521.04,-84.32
521.14,-84.32
521.24,-84.32
521.34,-84.6
521.44,-84.87
521.54,-84.32
521.65,-84.6
521.75,-84.6
521.85,-84.32
521.95,-84.32
522.05,-84.32
522.15,-84.32
522.25,-84.04
522.35,-84.32
522.45,-84.32
522.55,-84.32
522.65,-84.04
522.76,-84.6
522.86,-84.6
522.96,-84.6
523.06,-84.04
523.16,-84.32
523.26,-84.04
523.36,-84.04
523.46,-84.32
523.56,-84.04
523.66,-84.6
523.77,-84.32
523.87,-84.6
523.97,-84.32
524.07,-84.32
524.17,-84.04
524.27,-83.76
524.37,-84.32
524.47,-84.6
524.57,-84.04
524.67,-84.32
524.78,-84.32
524.88,-84.6
524.98,-84.04
525.08,-84.32
525.18,-84.04
525.28,-84.32
525.38,-84.32
525.48,-84.32
525.58,-84.04
525.69,-83.76
525.79,-84.32
525.89,-84.04
525.99,-84.04
526.09,-84.04
526.19,-83.76
526.29,-84.04
526.39,-84.04
526.49,-84.04
526.59,-84.04
526.7,-84.32
526.8,-84.32
526.9,-84.32
527,-84.04
527.1,-83.76
527.2,-83.76
527.3,-84.04
527.4,-84.04
527.5,-83.76
527.6,-84.32
527.71,-83.76
527.81,-84.04
527.91,-83.76
528.01,-84.04
528.11,-84.04
528.21,-83.48
528.31,-84.04
528.41,-84.04
528.51,-84.32
528.61,-83.76
528.72,-83.76
528.82,-84.32
528.92,-84.04
529.02,-84.04
529.12,-83.76
529.22,-83.76
529.32,-84.04
529.42,-83.76
529.52,-83.76
529.63,-84.04
529.73,-84.32
529.83,-83.76
529.93,-84.04
530.03,-84.04
530.13,-83.76
530.23,-83.76
530.33,-83.48
530.43,-84.04
530.53,-83.76
530.64,-84.04
530.74,-83.76
530.84,-83.76
530.94,-83.76
531.04,-83.48
531.14,-83.48
531.24,-84.04
531.34,-83.76
531.44,-83.48
531.54,-83.48
531.65,-83.76
531.75,-83.48
531.85,-83.76
531.95,-84.04
532.05,-83.76
532.15,-84.32
532.25,-83.76
532.35,-83.76
532.45,-83.76
532.55,-83.76
532.66,-83.48
532.76,-83.48
532.86,-83.76
532.96,-83.2
533.06,-83.48
533.16,-83.48
533.26,-83.48
533.36,-83.2
533.46,-83.48
533.56,-83.48
533.66,-83.48
533.77,-83.76
533.87,-83.76
533.97,-83.48
534.07,-83.2
534.17,-83.76
534.27,-83.48
534.37,-83.48
534.47,-83.2
534.58,-83.48
534.67,-83.48
534.78,-83.48
534.88,-82.93
534.98,-83.48
535.08,-83.48
535.18,-83.2
535.28,-83.48
535.38,-83.48
535.48,-83.2
535.58,-83.76
535.69,-83.48
535.79,-83.48
535.89,-83.76
535.99,-83.2
536.09,-83.2
536.19,-83.48
536.29,-83.48
536.39,-83.2
536.49,-83.2
536.59,-83.2
536.7,-83.48
536.8,-83.2
536.9,-83.2
537,-83.2
537.1,-83.48
537.2,-83.2
537.3,-83.48
537.4,-83.2
537.5,-83.48
537.6,-83.76
537.71,-83.2
537.81,-83.2
537.91,-83.48
538.01,-83.76
538.11,-83.2
538.21,-83.2
538.31,-83.2
538.41,-83.48
538.51,-83.2
538.61,-82.93
538.72,-83.2
538.82,-83.2
538.92,-83.2
539.02,-82.93
539.12,-83.2
539.22,-82.93
539.32,-82.65
539.42,-83.48
539.52,-82.93
539.63,-83.2
539.73,-83.2
539.83,-83.48
539.93,-83.48
540.03,-82.65
540.13,-83.2
540.23,-82.93
540.33,-83.2
540.43,-83.2
540.53,-82.93
540.64,-82.93
540.74,-82.93
540.84,-83.2
540.94,-82.93
541.04,-82.93
541.14,-82.93
541.24,-83.2
541.34,-82.65
541.44,-82.65
541.54,-83.2
541.65,-83.48
541.75,-82.93
541.85,-83.2
541.95,-83.2
542.05,-82.93
542.15,-82.93
542.25,-82.93
542.35,-83.2
542.45,-82.93
542.55,-83.2
542.66,-82.93
542.76,-82.65
542.86,-83.2
542.96,-83.2
543.06,-82.93
543.16,-82.65
543.26,-82.65
543.36,-83.2
543.46,-82.93
543.56,-82.93
543.67,-82.65
543.77,-82.65
543.87,-82.65
543.97,-82.65
544.07,-82.65
544.17,-82.65
544.27,-82.37
544.37,-82.93
544.47,-82.65
544.58,-82.93
544.67,-82.65
544.78,-82.37
544.88,-83.2
544.98,-82.65
545.08,-82.93
545.18,-82.93
545.28,-83.2
545.38,-82.93
545.48,-82.93
545.59,-82.65
545.69,-82.65
545.79,-82.65
545.89,-82.09
545.99,-82.65
546.09,-82.65
546.19,-82.65
546.29,-83.2
546.39,-83.2
546.49,-82.65
546.59,-82.65
546.7,-82.93
546.8,-82.65
546.9,-82.37
547,-82.93
547.1,-82.65
547.2,-82.65
547.3,-82.65
547.4,-82.93
547.51,-82.37
547.6,-82.37
547.71,-82.65
547.81,-82.37
547.91,-82.37
548.01,-82.37
548.11,-82.65
548.21,-82.09
548.31,-82.37
548.41,-82.65
548.51,-82.37
548.62,-82.37
548.72,-82.37
548.82,-82.37
548.92,-82.65
549.02,-82.09
549.12,-82.65
549.22,-82.37
549.32,-82.65
549.42,-82.37
549.53,-82.37
549.63,-82.37
549.73,-82.37
549.83,-82.09
549.93,-82.37
550.03,-82.09
550.13,-82.09
550.23,-82.09
550.33,-82.37
550.43,-82.37
550.53,-82.37
550.64,-82.37
550.74,-82.09
550.84,-82.09
550.94,-82.09
551.04,-82.37
551.14,-82.09
551.24,-82.65
551.34,-82.09
551.44,-82.09
551.54,-82.09
551.65,-82.37
551.75,-82.09
551.85,-82.37
551.95,-82.37
552.05,-82.93
552.15,-82.37
552.25,-82.09
552.35,-82.65
552.45,-82.09
552.55,-82.09
552.66,-81.81
552.76,-82.37
552.86,-82.09
552.96,-81.81
553.06,-82.37
553.16,-82.09
553.26,-82.09
553.36,-82.37
553.46,-82.09
553.57,-81.81
553.67,-81.81
553.77,-82.09
553.87,-81.81
553.97,-82.09
554.07,-82.09
554.17,-82.37
554.27,-82.37
554.37,-82.09
554.47,-81.81
554.58,-81.81
554.68,-81.81
554.78,-82.09
554.88,-82.37
554.98,-82.09
555.08,-82.09
555.18,-82.37
555.28,-81.81
555.38,-82.09
555.48,-82.09
555.59,-82.09
555.69,-81.81
555.79,-81.81
555.89,-81.81
555.99,-82.09
556.09,-82.09
556.19,-82.09
556.29,-82.37
556.39,-81.81
556.49,-81.81
556.6,-81.81
556.7,-81.81
556.8,-81.81
556.9,-81.81
557,-81.81
557.1,-82.37
557.2,-81.81
557.3,-81.81
557.4,-81.81
557.51,-82.09
557.6,-82.09
557.71,-82.37
557.81,-81.81
557.91,-82.09
558.01,-81.26
558.11,-81.81
558.21,-82.09
558.31,-82.09
558.41,-81.81
558.52,-81.81
558.62,-81.81
558.72,-81.81
558.82,-81.81
558.92,-81.53
559.02,-82.09
559.12,-81.81
559.22,-81.81
559.32,-81.53
559.42,-81.81
559.53,-81.53
559.63,-81.53
559.73,-81.81
559.83,-82.37
559.93,-81.81
560.03,-81.26
560.13,-81.81
560.23,-81.53
560.33,-81.53
560.44,-81.81
560.53,-81.81
560.64,-81.81
560.74,-81.53
560.84,-81.53
560.94,-81.81
561.04,-81.81
561.14,-81.53
561.24,-81.81
561.34,-81.81
561.44,-81.53
561.55,-81.81
561.65,-81.26
561.75,-81.53
561.85,-81.53
561.95,-81.81
562.05,-81.53
562.15,-81.53
562.25,-81.81
562.35,-81.81
562.46,-81.81
562.55,-81.81
562.66,-81.53
562.76,-81.53
562.86,-81.53
562.96,-81.53
563.06,-81.81
563.16,-81.26
563.26,-81.81
563.36,-81.53
563.47,-81.26
563.57,-81.53
563.67,-81.26
563.77,-81.81
563.87,-81.53
563.97,-81.26
564.07,-81.53
564.17,-81.26
564.27,-81.26
564.37,-81.26
564.47,-81.26
564.58,-81.26
564.68,-81.53
564.78,-81.26
564.88,-81.53
564.98,-81.26
565.08,-81.26
565.18,-80.98
565.28,-80.98
565.38,-80.98
565.48,-81.53
565.59,-81.26
565.69,-81.53
565.79,-81.53
565.89,-81.53
565.99,-81.26
566.09,-81.26
566.19,-81.26
566.29,-81.81
566.39,-81.81
566.5,-81.26
566.6,-80.98
566.7,-81.53
566.8,-81.26
566.9,-80.98
567,-80.7
567.1,-81.26
567.2,-81.53
567.3,-81.53
567.4,-81.81
567.51,-80.98
567.61,-81.26
567.71,-81.53
567.81,-81.26
567.91,-81.81
568.01,-81.26
568.11,-81.26
568.21,-81.26
568.31,-80.98
568.41,-81.26
568.52,-80.98
568.62,-81.53
568.72,-81.26
568.82,-80.98
568.92,-80.98
569.02,-80.98
569.12,-81.26
569.22,-81.26
569.32,-80.98
569.42,-81.26
569.53,-81.26
569.63,-80.98
569.73,-81.26
569.83,-81.26
569.93,-81.26
570.03,-81.26
570.13,-80.7
570.23,-80.7
570.33,-81.26
570.44,-80.98
570.54,-80.98
570.64,-80.98
570.74,-80.98
570.84,-80.98
570.94,-80.98
571.04,-81.53
571.14,-81.26
571.24,-81.26
571.34,-81.26
571.45,-81.26
571.55,-80.98
571.65,-80.7
571.75,-81.26
571.85,-80.98
571.95,-80.98
572.05,-80.98
572.15,-80.42
572.25,-80.98
572.35,-80.98
572.46,-80.7
572.56,-81.26
572.66,-80.98
572.76,-81.26
572.86,-80.98
572.96,-81.26
573.06,-80.98
573.16,-80.98
573.26,-80.7
573.36,-80.98
573.47,-80.98
573.57,-80.7
573.67,-81.26
573.77,-80.42
573.87,-80.7
573.97,-80.7
574.07,-80.7
574.17,-80.42
574.27,-80.98
574.37,-80.42
574.48,-80.98
574.58,-80.98
574.68,-80.98
574.78,-81.26
574.88,-80.42
574.98,-80.7
575.08,-80.98
575.18,-80.7
575.28,-80.98
575.39,-80.42
575.48,-80.7
575.59,-80.7
575.69,-80.42
575.79,-80.7
575.89,-80.42
575.99,-80.42
576.09,-80.7
576.19,-80.98
576.29,-80.14
576.4,-80.7
576.5,-80.42
576.6,-80.7
576.7,-80.42
576.8,-80.42
576.9,-80.98
577,-80.7
577.1,-80.42
577.2,-80.98
577.3,-80.7
577.41,-80.7
577.51,-80.42
577.61,-80.42
577.71,-80.42
577.81,-80.42
577.91,-80.7
578.01,-80.42
578.11,-80.7
578.21,-80.42
578.32,-80.7
578.41,-80.7
578.52,-80.42
578.62,-80.7
578.72,-80.42
578.82,-80.42
578.92,-80.42
579.02,-80.14
579.12,-80.42
579.22,-80.7
579.32,-80.14
579.43,-80.42
579.53,-80.14
579.63,-80.42
579.73,-80.42
579.83,-80.14
579.93,-80.42
580.03,-80.14
580.13,-80.14
580.23,-80.42
580.34,-80.42
580.44,-80.42
580.54,-80.98
580.64,-80.42
580.74,-80.42
580.84,-80.42
580.94,-80.14
581.04,-80.42
581.14,-80.14
581.24,-80.42
581.34,-80.42
581.45,-80.7
581.55,-80.14
581.65,-80.42
581.75,-80.14
581.85,-80.14
581.95,-80.42
582.05,-80.42
582.15,-80.7
582.25,-80.42
582.35,-80.14
582.46,-80.42
582.56,-79.86
582.66,-80.42
582.76,-80.42
582.86,-80.42
582.96,-80.14
583.06,-80.42
583.16,-80.42
583.26,-80.14
583.36,-80.14
583.47,-80.14
583.57,-80.14
583.67,-80.14
583.77,-80.14
583.87,-80.7
583.97,-80.42
584.07,-79.86
584.17,-79.86
584.27,-79.86
584.38,-79.86
584.48,-79.86
584.58,-79.86
584.68,-80.14
584.78,-79.86
584.88,-79.86
584.98,-80.14
585.08,-80.14
585.18,-80.14
585.28,-80.42
585.39,-79.59
585.49,-80.14
585.59,-80.42
585.69,-80.14
585.79,-79.59
585.89,-80.14
585.99,-79.86
586.09,-79.59
586.19,-79.59
586.29,-80.14
586.4,-80.14
586.5,-79.86
586.6,-79.86
586.7,-80.14
586.8,-79.86
586.9,-79.86
587,-80.14
587.1,-79.86
587.2,-79.86
587.3,-79.86
587.41,-79.86
587.51,-80.14
587.61,-79.59
587.71,-79.86
587.81,-79.86
587.91,-79.86
588.01,-79.59
588.11,-79.59
588.21,-80.14
588.32,-79.86
588.42,-79.86
588.52,-79.86
588.62,-80.14
588.72,-79.86
588.82,-79.59
588.92,-80.14
589.02,-79.86
589.12,-80.14
589.22,-79.86
589.33,-79.59
589.43,-79.86
589.53,-79.59
589.63,-79.59
589.73,-79.59
589.83,-79.86
589.93,-79.86
590.03,-79.31
590.13,-79.59
590.23,-79.86
590.34,-79.86
590.44,-79.86
590.54,-79.59
590.64,-79.86
590.74,-79.59
590.84,-79.86
590.94,-79.59
591.04,-79.31
591.14,-79.59
591.25,-79.59
591.34,-79.59
591.45,-79.86
591.55,-79.59
591.65,-79.59
591.75,-79.86
591.85,-79.31
591.95,-79.31
592.05,-79.59
592.15,-79.59
592.25,-79.86
592.36,-79.59
592.46,-80.14
592.56,-79.31
592.66,-79.31
592.76,-79.59
592.86,-79.59
592.96,-79.59
593.06,-79.03
593.16,-79.31
593.27,-79.59
593.37,-79.86
593.47,-79.59
593.57,-79.59
593.67,-79.59
593.77,-79.31
593.87,-79.31
593.97,-79.59
594.07,-79.59
594.17,-79.03
594.28,-79.31
594.38,-79.59
594.48,-79.31
594.58,-79.31
594.68,-79.31
594.78,-79.31
594.88,-79.59
594.98,-79.31
595.08,-79.31
595.18,-79.59
595.29,-79.59
595.39,-79.59
595.49,-79.31
595.59,-79.86
595.69,-79.31
595.79,-79.59
595.89,-79.31
595.99,-79.59
596.09,-79.31
596.2,-79.03
596.29,-79.59
596.4,-79.03
596.5,-79.31
596.6,-79.31
596.7,-79.59
596.8,-79.31
596.9,-79.03
597,-79.31
597.1,-79.59
597.2,-79.59
597.31,-79.03
597.41,-79.59
597.51,-79.59
597.61,-79.03
597.71,-79.03
597.81,-79.59
597.91,-79.03
598.01,-79.31
598.11,-79.31
598.22,-79.31
598.32,-79.03
598.42,-79.03
598.52,-79.31
598.62,-79.31
598.72,-79.31
598.82,-79.03
598.92,-79.31
599.02,-79.31
599.12,-79.59
599.22,-79.03
599.33,-78.75
599.43,-79.03
599.53,-79.03
599.63,-79.03
599.73,-79.03
599.83,-79.03
599.93,-79.31
600.03,-79.03
600.13,-78.75
600.24,-79.31
600.34,-79.03
600.44,-79.03
600.54,-79.03
600.64,-79.03
600.74,-79.03
600.84,-79.03
600.94,-79.03
601.04,-79.31
601.15,-78.75
601.25,-78.75
601.35,-79.03
601.45,-79.31
601.55,-79.03
601.65,-79.31
601.75,-79.03
601.85,-79.03
601.95,-78.75
602.05,-78.75
602.16,-79.59
602.26,-79.03
602.36,-78.75
602.46,-79.03
602.56,-78.75
602.66,-79.03
602.76,-78.75
602.86,-79.03
602.96,-78.47
603.06,-78.75
603.16,-78.75
603.27,-78.75
603.37,-79.31
603.47,-79.03
603.57,-79.31
603.67,-79.31
603.77,-79.03
603.87,-78.75
603.97,-78.75
604.07,-79.03
604.17,-78.75
604.28,-79.03
604.38,-78.75
604.48,-79.03
604.58,-78.75
604.68,-78.75
604.78,-78.75
604.88,-78.75
604.98,-78.75
605.08,-78.75
605.19,-78.75
605.29,-79.03
605.39,-78.75
605.49,-78.75
605.59,-78.75
605.69,-78.75
605.79,-79.03
605.89,-79.03
605.99,-78.75
606.09,-78.47
606.2,-78.75
606.3,-78.75
606.4,-78.47
606.5,-78.75
606.6,-78.75
606.7,-78.47
606.8,-78.75
606.9,-78.75
607,-79.03
607.1,-78.75
607.21,-78.75
607.31,-78.75
607.41,-78.75
607.51,-78.75
607.61,-78.75
607.71,-78.75
607.81,-78.47
607.91,-78.75
608.01,-78.75
608.11,-78.75
608.22,-78.75
608.32,-78.47
608.42,-79.03
608.52,-78.75
608.62,-78.47
608.72,-78.75
608.82,-78.75
608.92,-78.75
609.02,-78.75
609.13,-78.75
609.22,-78.75
609.33,-78.75
609.43,-78.19
609.53,-78.19
609.63,-78.47
609.73,-78.75
609.83,-78.47
609.93,-78.47
610.03,-78.19
610.14,-78.47
610.24,-78.47
610.34,-79.03
610.44,-78.47
610.54,-78.47
610.64,-78.47
610.74,-78.75
610.84,-78.47
610.94,-78.75
611.04,-78.19
611.15,-78.75
611.25,-78.47
611.35,-78.47
611.45,-78.47
611.55,-78.47
611.65,-78.19
611.75,-78.47
611.85,-78.75
611.95,-78.19
612.05,-78.47
612.16,-78.47
612.26,-78.75
612.36,-78.47
612.46,-78.75
612.56,-78.75
612.66,-78.47
612.76,-78.47
612.86,-78.47
612.96,-77.91
613.06,-78.19
613.17,-78.19
613.27,-78.19
613.37,-78.47
613.47,-78.47
613.57,-78.19
613.67,-78.19
613.77,-78.47
613.87,-77.91
613.97,-78.19
614.08,-78.75
614.17,-78.19
614.28,-78.19
614.38,-78.47
614.48,-78.47
614.58,-78.19
614.68,-78.19
614.78,-78.47
614.88,-78.47
614.98,-78.19
615.09,-78.47
615.19,-78.19
615.29,-78.19
615.39,-78.19
615.49,-78.19
615.59,-78.19
615.69,-78.19
615.79,-77.64
615.89,-77.91
615.99,-78.47
616.09,-77.91
616.2,-78.47
616.3,-78.19
616.4,-77.91
616.5,-77.91
616.6,-78.19
616.7,-78.19
616.8,-77.91
616.9,-78.75
617.01,-77.91
617.1,-78.19
617.21,-77.91
617.31,-78.19
617.41,-77.64
617.51,-78.19
617.61,-78.19
617.71,-77.91
617.81,-78.47
617.91,-77.64
618.01,-77.91
618.12,-77.91
618.22,-77.91
618.32,-77.91
618.42,-77.91
618.52,-78.19
618.62,-77.91
618.72,-78.19
618.82,-77.91
618.92,-78.19
619.03,-77.91
619.13,-77.91
619.23,-78.19
619.33,-77.91
619.43,-77.91
619.53,-78.19
619.63,-77.64
619.73,-77.64
619.83,-77.91
619.93,-77.64
620.03,-78.19
620.14,-77.64
620.24,-78.19
620.34,-78.47
620.44,-77.91
620.54,-77.91
620.64,-77.91
620.74,-77.91
620.84,-77.91
620.94,-77.91
621.04,-77.64
621.15,-77.64
621.25,-77.91
621.35,-77.91
621.45,-77.91
621.55,-77.91
621.65,-77.36
621.75,-77.91
621.85,-77.91
621.95,-77.91
622.05,-78.19
622.16,-77.91
622.26,-77.64
622.36,-78.19
622.46,-78.19
622.56,-77.64
622.66,-77.91
622.76,-77.91
622.86,-77.64
622.96,-77.91
623.07,-77.64
623.17,-77.64
623.27,-77.64
623.37,-77.64
623.47,-77.64
623.57,-78.19
623.67,-77.91
623.77,-77.64
623.87,-77.64
623.97,-77.91
624.08,-77.91
624.18,-77.91
624.28,-77.64
624.38,-77.36
624.48,-77.64
624.58,-77.36
624.68,-77.36
624.78,-77.36
624.88,-77.91
624.98,-77.64
625.09,-77.91
625.19,-77.08
625.29,-77.64
625.39,-77.64
625.49,-77.64
625.59,-77.36
625.69,-77.36
625.79,-77.91
625.89,-77.64
625.99,-77.08
626.1,-77.36
626.2,-77.64
626.3,-77.64
626.4,-77.36
626.5,-77.64
626.6,-77.91
626.7,-77.36
626.8,-77.64
626.9,-77.36
627.01,-77.91
627.11,-77.36
627.21,-77.91
627.31,-77.64
627.41,-77.64
627.51,-77.64
627.61,-77.08
627.71,-77.64
627.81,-77.36
627.91,-77.36
628.02,-77.36
628.12,-77.64
628.22,-77.36
628.32,-77.64
628.42,-77.36
628.52,-77.64
628.62,-77.64
628.72,-77.64
628.82,-77.36
628.92,-77.36
629.03,-77.36
629.13,-77.08
629.23,-77.36
629.33,-77.36
629.43,-77.36
629.53,-77.64
629.63,-77.36
629.73,-77.36
629.83,-77.08
629.94,-77.08
630.04,-77.36
630.14,-77.64
630.24,-77.36
630.34,-77.08
630.44,-77.36
630.54,-77.36
630.64,-77.36
630.74,-77.36
630.84,-77.36
630.94,-77.36
631.05,-77.36
631.15,-76.8
631.25,-77.08
631.35,-77.36
631.45,-77.08
631.55,-77.08
631.65,-77.08
631.75,-77.36
631.85,-77.08
631.96,-77.08
632.06,-77.36
632.16,-77.08
632.26,-77.08
632.36,-77.64
632.46,-77.36
632.56,-76.8
632.66,-77.36
632.76,-77.36
632.86,-76.8
632.97,-77.36
633.07,-77.08
633.17,-77.08
633.27,-77.36
633.37,-76.8
633.47,-77.08
633.57,-77.08
633.67,-77.08
633.77,-77.36
633.87,-77.36
633.97,-77.08
634.08,-76.8
634.18,-77.36
634.28,-77.08
634.38,-77.08
634.48,-76.8
634.58,-77.08
634.68,-77.08
634.78,-76.8
634.89,-77.08
634.98,-77.36
635.09,-77.08
635.19,-77.08
635.29,-77.08
635.39,-77.08
635.49,-76.8
635.59,-77.36
635.69,-77.08
635.79,-76.8
635.89,-77.08
636,-76.8
636.1,-76.8
636.2,-77.08
636.3,-76.8
636.4,-76.8
636.5,-76.8
636.6,-77.08
636.7,-77.08
636.8,-77.08
636.9,-76.8
637.01,-77.08
637.11,-76.8
637.21,-77.08
637.31,-77.08
637.41,-76.8
637.51,-77.36
637.61,-77.08
637.71,-76.8
637.81,-76.52
637.91,-76.52
638.02,-77.08
638.12,-77.08
638.22,-76.52
638.32,-77.08
638.42,-76.52
638.52,-76.52
638.62,-76.8
638.72,-76.8
638.82,-76.52
638.92,-77.08
639.03,-76.8
639.13,-76.8
639.23,-76.8
639.33,-76.52
639.43,-77.08
639.53,-76.52
639.63,-76.8
639.73,-76.8
639.83,-76.52
639.94,-76.52
640.04,-77.08
640.14,-76.52
640.24,-76.8
640.34,-76.8
640.44,-76.8
640.54,-77.08
640.64,-76.52
640.74,-76.8
640.84,-76.8
640.95,-76.8
641.05,-76.52
641.15,-76.52
641.25,-76.52
641.35,-76.8
641.45,-76.8
641.55,-76.52
641.65,-76.52
641.75,-76.8
641.85,-76.8
641.96,-76.52
642.06,-76.52
642.16,-76.52
642.26,-76.8
642.36,-76.52
642.46,-76.52
642.56,-77.08
642.66,-76.8
642.76,-76.8
642.86,-76.24
642.97,-76.24
643.07,-76.52
643.17,-76.52
643.27,-76.24
643.37,-76.52
643.47,-76.52
643.57,-76.52
643.67,-76.52
643.77,-76.52
643.87,-76.24
643.98,-76.52
644.08,-76.24
644.18,-76.52
644.28,-76.52
644.38,-76.8
644.48,-76.24
644.58,-76.24
644.68,-76.52
644.78,-76.8
644.89,-76.24
644.98,-76.52
645.09,-76.24
645.19,-76.52
645.29,-76.52
645.39,-76.8
645.49,-76.24
645.59,-76.52
645.69,-76.24
645.79,-76.24
645.9,-76.8
646,-76.24
646.1,-76.24
646.2,-76.52
646.3,-76.24
646.4,-75.97
646.5,-76.52
646.6,-76.52
646.7,-75.97
646.8,-76.24
646.91,-76.24
647.01,-76.52
647.11,-76.52
647.21,-76.52
647.31,-76.52
647.41,-76.24
647.51,-76.24
647.61,-75.97
647.71,-75.97
647.82,-76.24
647.91,-76.24
648.02,-76.24
648.12,-76.24
648.22,-76.24
648.32,-75.97
648.42,-76.24
648.52,-75.97
648.62,-76.24
648.72,-76.52
648.82,-75.97
648.93,-76.52
649.03,-76.24
649.13,-76.24
649.23,-76.24
649.33,-75.69
649.43,-75.97
649.53,-76.24
649.63,-75.97
649.73,-75.97
649.84,-75.97
649.94,-76.24
650.04,-76.24
650.14,-76.24
650.24,-76.24
650.34,-75.97
650.44,-75.97
650.54,-76.52
650.64,-75.97
650.74,-76.24
650.84,-76.24
650.95,-76.24
651.05,-75.69
651.15,-76.52
651.25,-75.97
651.35,-76.24
651.45,-75.97
651.55,-75.69
651.65,-76.24
651.75,-75.97
651.85,-75.97
651.96,-76.8
652.06,-76.24
652.16,-75.69
652.26,-75.97
652.36,-76.24
652.46,-76.24
652.56,-76.24
652.66,-75.97
652.76,-76.24
652.86,-76.24
652.97,-75.97
653.07,-75.97
653.17,-75.97
653.27,-75.97
653.37,-76.24
653.47,-75.97
653.57,-76.52
653.67,-75.97
653.77,-76.24
653.88,-76.52
653.98,-75.97
654.08,-75.97
654.18,-75.97
654.28,-75.97
654.38,-76.24
654.48,-75.97
654.58,-75.97
654.68,-75.97
654.78,-75.69
654.89,-75.69
654.99,-76.24
655.09,-75.69
655.19,-76.24
655.29,-75.97
655.39,-75.97
655.49,-75.97
655.59,-75.69
655.69,-75.69
655.79,-76.24
655.9,-75.97
656,-75.97
656.1,-75.41
656.2,-75.69
656.3,-75.97
656.4,-75.69
656.5,-75.69
656.6,-75.69
656.7,-75.97
656.8,-75.69
656.91,-75.41
657.01,-75.97
657.11,-75.69
657.21,-75.69
657.31,-75.69
657.41,-75.69
657.51,-75.97
657.61,-75.97
657.71,-75.69
657.82,-75.97
657.91,-75.41
658.02,-75.41
658.12,-75.41
658.22,-75.69
658.32,-75.69
658.42,-75.41
658.52,-75.97
658.62,-75.69
658.72,-75.69
658.83,-75.97
658.93,-75.69
659.03,-75.41
659.13,-75.69
659.23,-75.69
659.33,-75.69
659.43,-75.97
659.53,-75.69
659.63,-75.69
659.73,-75.41
659.84,-75.41
659.94,-75.69
660.04,-75.69
660.14,-75.41
660.24,-75.69
660.34,-75.69
660.44,-75.97
660.54,-75.69
660.64,-75.41
660.75,-75.69
660.84,-75.13
660.95,-75.97
661.05,-75.69
661.15,-75.41
661.25,-75.41
661.35,-75.97
661.45,-75.41
661.55,-75.69
661.65,-75.41
661.75,-75.69
661.86,-74.85
661.96,-75.97
662.06,-75.69
662.16,-75.41
662.26,-75.41
662.36,-75.13
662.46,-75.69
662.56,-75.69
662.66,-75.13
662.77,-75.41
662.86,-75.69
662.97,-75.13
663.07,-75.69
663.17,-75.41
663.27,-75.69
663.37,-75.41
663.47,-75.41
663.57,-75.41
663.67,-75.69
663.78,-75.41
663.88,-75.41
663.98,-75.41
664.08,-75.41
664.18,-75.41
664.28,-75.41
664.38,-75.97
664.48,-75.13
664.58,-75.41
664.68,-75.41
664.78,-75.13
664.89,-75.13
664.99,-74.85
665.09,-75.41
665.19,-75.13
665.29,-75.13
665.39,-74.85
665.49,-75.69
665.59,-74.85
665.7,-75.41
665.79,-75.13
665.9,-75.41
666,-75.41
666.1,-75.41
666.2,-75.41
666.3,-75.41
666.4,-75.69
666.5,-75.41
666.6,-74.85
666.7,-75.13
666.81,-75.13
666.91,-75.41
667.01,-74.85
667.11,-75.41
667.21,-75.13
667.31,-75.13
667.41,-75.13
667.51,-75.41
667.61,-75.13
667.72,-75.13
667.82,-75.13
667.92,-75.13
668.02,-74.85
668.12,-75.13
668.22,-75.13
668.32,-75.41
668.42,-75.13
668.52,-75.13
668.62,-75.13
668.72,-75.13
668.83,-75.13
668.93,-75.13
669.03,-75.41
669.13,-75.13
669.23,-74.85
669.33,-74.85
669.43,-75.41
669.53,-75.13
669.63,-74.85
669.73,-75.13
669.84,-74.85
669.94,-75.13
670.04,-75.13
670.14,-75.13
670.24,-74.85
670.34,-75.13
670.44,-74.57
670.54,-75.13
670.64,-75.41
670.75,-74.85
670.85,-74.85
670.95,-74.85
671.05,-75.13
671.15,-74.85
671.25,-74.85
671.35,-74.85
671.45,-75.13
671.55,-75.13
671.65,-74.85
671.76,-74.85
671.86,-74.57
671.96,-74.85
672.06,-74.85
672.16,-75.13
672.26,-75.13
672.36,-75.41
672.46,-75.13
672.56,-74.85
672.66,-74.57
672.77,-74.57
672.87,-74.85
672.97,-74.85
673.07,-75.13
673.17,-74.85
673.27,-74.57
673.37,-74.57
673.47,-75.13
673.57,-74.57
673.67,-74.85
673.78,-74.85
673.88,-75.13
673.98,-74.85
674.08,-74.85
674.18,-74.85
674.28,-74.57
674.38,-74.85
674.48,-74.85
674.58,-74.85
674.68,-74.85
674.79,-74.57
674.89,-74.57
674.99,-74.57
675.09,-74.85
675.19,-74.85
675.29,-74.57
675.39,-74.57
675.49,-74.85
675.59,-74.57
675.7,-75.13
675.8,-74.85
675.9,-74.85
676,-74.85
676.1,-74.85
676.2,-74.85
676.3,-74.85
676.4,-74.85
676.5,-74.57
676.6,-74.85
676.71,-74.85
676.81,-74.57
676.91,-74.85
677.01,-74.85
677.11,-74.57
677.21,-74.57
677.31,-74.85
677.41,-74.85
677.51,-74.57
677.61,-74.57
677.72,-74.85
677.82,-74.57
677.92,-74.85
678.02,-74.57
678.12,-74.85
678.22,-74.3
678.32,-74.3
678.42,-74.85
678.52,-74.85
678.63,-74.3
678.72,-74.3
678.83,-74.85
678.93,-74.85
679.03,-74.3
679.13,-74.85
679.23,-74.57
679.33,-74.57
679.43,-74.57
679.53,-74.57
679.63,-74.85
679.74,-74.57
679.84,-74.57
679.94,-74.3
680.04,-74.57
680.14,-74.3
680.24,-74.85
680.34,-74.3
680.44,-74.02
680.54,-74.3
680.65,-74.02
680.75,-74.57
680.85,-74.85
680.95,-74.57
681.05,-74.57
681.15,-74.3
681.25,-74.57
681.35,-74.3
681.45,-74.3
681.55,-74.3
681.66,-74.02
681.76,-74.3
681.86,-74.3
681.96,-74.3
682.06,-74.3
682.16,-74.3
682.26,-74.57
682.36,-74.3
682.46,-74.3
682.56,-74.57
682.66,-74.3
682.77,-74.57
682.87,-74.3
682.97,-74.3
683.07,-74.3
683.17,-74.57
683.27,-74.3
683.37,-74.85
683.47,-74.3
683.57,-74.3
683.67,-74.3
683.78,-74.57
683.88,-74.3
683.98,-74.57
684.08,-74.02
684.18,-74.02
684.28,-74.3
684.38,-74.57
684.48,-74.3
684.58,-74.3
684.69,-74.02
684.79,-74.3
684.89,-74.3
684.99,-74.02
685.09,-74.57
685.19,-74.3
685.29,-74.02
685.39,-74.02
685.49,-73.74
685.59,-74.02
685.7,-74.02
685.8,-74.3
685.9,-74.85
686,-74.3
686.1,-74.02
686.2,-74.3
686.3,-74.3
686.4,-74.3
686.5,-74.57
686.6,-74.57
686.71,-74.3
686.81,-73.74
686.91,-74.02
687.01,-74.3
687.11,-74.3
687.21,-74.02
687.31,-74.02
687.41,-74.02
687.51,-74.02
687.61,-74.02
687.72,-74.3
687.82,-74.3
687.92,-74.57
688.02,-74.02
688.12,-74.02
688.22,-74.3
688.32,-74.02
688.42,-74.3
688.52,-74.02
688.63,-74.57
688.73,-74.02
688.83,-74.02
688.93,-74.3
689.03,-74.3
689.13,-74.02
689.23,-73.74
689.33,-73.46
689.43,-73.74
689.53,-74.57
689.64,-73.74
689.74,-74.02
689.84,-74.3
689.94,-74.02
690.04,-73.74
690.14,-73.74
690.24,-74.3
690.34,-74.3
690.44,-74.02
690.54,-73.74
690.65,-74.02
690.75,-73.74
690.85,-74.02
690.95,-74.02
691.05,-73.74
691.15,-73.46
691.25,-73.74
691.35,-74.02
691.45,-74.02
691.55,-73.74
691.66,-74.02
691.76,-74.3
691.86,-73.74
691.96,-74.02
692.06,-73.74
692.16,-74.02
692.26,-74.02
692.36,-73.74
692.46,-73.74
692.56,-73.74
692.67,-73.74
692.77,-73.46
692.87,-73.46
692.97,-74.02
693.07,-74.02
693.17,-74.02
693.27,-74.02
693.37,-74.02
693.47,-73.74
693.57,-73.74
693.68,-74.02
693.78,-74.3
693.88,-74.02
693.98,-74.02
694.08,-74.02
694.18,-73.74
694.28,-73.74
694.38,-73.74
694.48,-73.46
694.59,-73.18
694.69,-73.46
694.79,-73.74
694.89,-73.74
694.99,-73.74
695.09,-73.74
695.19,-73.74
695.29,-73.74
695.39,-74.02
695.49,-74.02
695.59,-73.74
695.7,-73.74
695.8,-74.02
695.9,-73.74
696,-73.46
696.1,-73.74
696.2,-73.46
696.3,-73.46
696.4,-73.46
696.5,-73.46
696.6,-73.74
696.71,-74.3
696.81,-73.74
696.91,-74.02
697.01,-73.74
697.11,-73.46
697.21,-73.46
697.31,-73.74
697.41,-73.18
697.52,-73.74
697.61,-73.46
697.72,-73.74
697.82,-73.46
697.92,-73.74
698.02,-73.46
698.12,-73.74
698.22,-73.74
698.32,-73.74
698.42,-74.02
698.52,-74.02
698.63,-73.18
698.73,-73.18
698.83,-73.74
698.93,-74.02
699.03,-73.74
699.13,-73.18
699.23,-73.46
699.33,-73.46
699.43,-73.46
699.53,-73.74
699.64,-73.46
699.74,-73.46
699.84,-73.46
699.94,-73.74
700.04,-73.74
700.14,-73.46
700.24,-73.46
700.34,-73.18
700.44,-73.46
700.54,-73.46
700.65,-73.46
700.75,-73.46
700.85,-73.74
700.95,-73.46
701.05,-73.74
701.15,-73.74
701.25,-73.46
701.35,-73.18
701.45,-73.18
701.55,-73.46
701.66,-73.18
701.76,-73.46
701.86,-73.74
701.96,-73.18
702.06,-73.46
702.16,-73.46
702.26,-73.46
702.36,-73.18
702.46,-73.46
702.57,-73.18
702.67,-73.46
702.77,-73.46
702.87,-73.18
702.97,-73.46
703.07,-73.18
703.17,-73.18
703.27,-73.18
703.37,-73.18
703.47,-73.18
703.58,-73.18
703.68,-73.18
703.78,-73.46
703.88,-73.46
703.98,-73.46
704.08,-73.18
704.18,-73.18
704.28,-73.46
704.38,-73.46
704.48,-73.46
704.59,-73.18
704.69,-72.9
704.79,-73.18
704.89,-72.9
704.99,-73.18
705.09,-73.18
705.19,-73.46
705.29,-73.46
705.39,-73.18
705.5,-73.46
705.59,-73.18
705.7,-72.9
705.8,-72.9
705.9,-73.18
706,-73.74
706.1,-73.46
706.2,-73.18
706.3,-73.18
706.4,-73.18
706.5,-73.46
706.61,-73.18
706.71,-73.18
706.81,-72.9
706.91,-73.18
707.01,-73.18
707.11,-73.46
707.21,-73.18
707.31,-73.18
707.41,-73.46
707.52,-73.18
707.61,-73.46
707.72,-73.18
707.82,-73.18
707.92,-73.46
708.02,-73.46
708.12,-73.18
708.22,-73.18
708.32,-73.18
708.42,-73.46
708.53,-72.9
708.63,-73.18
708.73,-72.9
708.83,-73.18
708.93,-73.46
709.03,-72.9
709.13,-73.18
709.23,-73.18
709.33,-73.18
709.43,-73.18
709.53,-73.18
709.64,-73.18
709.74,-72.9
709.84,-72.9
709.94,-73.18
710.04,-73.18
710.14,-72.9
710.24,-72.9
710.34,-73.18
710.44,-72.9
710.54,-72.9
710.65,-73.18
710.75,-73.46
710.85,-73.18
710.95,-72.9
711.05,-73.18
711.15,-73.18
711.25,-72.9
711.35,-73.18
711.45,-72.9
711.56,-72.63
711.66,-73.18
711.76,-73.18
711.86,-72.9
711.96,-72.9
712.06,-72.63
712.16,-72.9
712.26,-72.9
712.36,-72.9
712.46,-73.18
712.57,-73.18
712.67,-72.9
712.77,-72.63
712.87,-72.9
712.97,-73.18
713.07,-72.9
713.17,-72.63
713.27,-72.63
713.37,-72.35
713.47,-72.9
713.58,-72.35
713.68,-72.63
713.78,-72.63
713.88,-72.9
713.98,-73.46
714.08,-72.63
714.18,-72.63
714.28,-72.9
714.38,-73.18
714.48,-72.9
714.59,-72.9
714.69,-72.9
714.79,-72.63
714.89,-72.63
714.99,-72.63
715.09,-72.63
715.19,-72.35
715.29,-72.35
715.39,-72.9
715.5,-72.35
715.59,-72.63
715.7,-72.9
715.8,-72.63
715.9,-72.9
716,-72.9
716.1,-72.9
716.2,-72.63
716.3,-72.63
716.4,-72.9
716.51,-72.9
716.61,-72.9
716.71,-72.63
716.81,-72.63
716.91,-72.63
717.01,-72.35
717.11,-72.35
717.21,-72.63
717.31,-73.18
717.41,-72.63
717.52,-72.35
717.62,-72.63
717.72,-72.63
717.82,-72.63
717.92,-72.63
718.02,-72.63
718.12,-72.63
718.22,-72.9
718.32,-72.63
718.42,-72.9
718.53,-72.35
718.63,-72.9
718.73,-72.63
718.83,-72.07
718.93,-72.35
719.03,-72.35
719.13,-72.63
719.23,-72.63
719.33,-72.9
719.43,-72.63
719.54,-72.35
719.64,-72.63
719.74,-72.35
719.84,-72.63
719.94,-72.9
720.04,-72.63
720.14,-72.35
720.24,-72.35
720.34,-72.35
720.44,-72.07
720.54,-72.63
720.65,-72.63
720.75,-72.35
720.85,-72.07
720.95,-72.63
721.05,-72.63
721.15,-72.63
721.25,-72.07
721.35,-72.63
721.46,-72.07
721.56,-72.35
721.66,-72.63
721.76,-72.35
721.86,-72.63
721.96,-72.07
722.06,-72.35
722.16,-72.63
722.26,-72.07
722.36,-72.35
722.46,-72.35
722.57,-72.35
722.67,-72.07
722.77,-71.79
722.87,-72.35
722.97,-72.63
723.07,-72.35
723.17,-72.63
723.27,-72.35
723.37,-72.35
723.47,-72.35
723.58,-72.07
723.68,-72.35
723.78,-72.35
723.88,-72.35
723.98,-72.35
724.08,-72.63
724.18,-72.35
724.28,-72.9
724.38,-72.35
724.48,-72.35
724.59,-72.35
724.69,-72.35
724.79,-72.63
724.89,-72.07
724.99,-72.35
725.09,-72.07
725.19,-71.79
725.29,-71.79
725.39,-72.35
725.5,-72.35
725.6,-72.35
725.7,-72.07
725.8,-72.07
725.9,-72.9
726,-72.63
726.1,-72.07
726.2,-72.35
726.3,-72.35
726.4,-72.07
726.51,-72.07
726.61,-72.35
726.71,-72.07
726.81,-71.79
726.91,-72.07
727.01,-72.35
727.11,-72.07
727.21,-71.51
727.31,-72.07
727.41,-72.07
727.52,-71.79
727.62,-72.07
727.72,-72.07
727.82,-72.35
727.92,-71.79
728.02,-72.07
728.12,-72.35
728.22,-72.07
728.32,-72.35
728.42,-72.35
728.53,-72.07
728.63,-72.07
728.73,-72.07
728.83,-72.07
728.93,-72.07
729.03,-72.07
729.13,-72.63
729.23,-71.79
729.33,-72.07
729.44,-72.07
729.53,-72.35
729.64,-72.35
729.74,-72.35
729.84,-72.07
729.94,-71.79
730.04,-72.35
730.14,-71.51
730.24,-71.79
730.34,-72.07
730.44,-71.79
730.55,-72.35
730.65,-71.51
730.75,-72.35
730.85,-72.07
730.95,-72.07
731.05,-72.35
731.15,-72.07
731.25,-72.07
731.35,-72.07
731.46,-72.35
731.55,-71.79
731.66,-72.07
731.76,-72.35
731.86,-71.79
731.96,-71.79
732.06,-72.07
732.16,-71.79
732.26,-71.23
732.36,-72.07
732.47,-72.07
732.57,-71.51
732.67,-71.79
732.77,-72.07
732.87,-72.07
732.97,-71.79
733.07,-71.79
733.17,-72.07
733.27,-71.79
733.37,-72.07
733.47,-71.79
733.58,-72.07
733.68,-71.79
733.78,-72.07
733.88,-72.07
733.98,-71.79
734.08,-71.79
734.18,-72.07
734.28,-72.07
734.39,-72.07
734.48,-72.35
734.59,-71.51
734.69,-71.51
734.79,-72.07
734.89,-72.07
734.99,-71.79
735.09,-72.07
735.19,-71.79
735.29,-71.79
735.39,-71.79
735.5,-71.51
735.6,-71.79
735.7,-71.51
735.8,-71.51
735.9,-71.79
736,-71.79
736.1,-71.51
736.2,-71.79
736.3,-72.35
736.4,-71.79
736.51,-71.79
736.61,-71.79
736.71,-71.79
736.81,-71.79
736.91,-72.07
737.01,-71.79
737.11,-71.51
737.21,-71.79
737.31,-71.51
737.41,-71.51
737.52,-71.79
737.62,-71.51
737.72,-71.51
737.82,-71.79
737.92,-71.79
738.02,-71.51
738.12,-72.07
738.22,-71.79
738.32,-71.51
738.42,-71.51
738.53,-71.79
738.63,-71.51
738.73,-71.79
738.83,-71.23
738.93,-71.23
739.03,-71.79
739.13,-71.23
739.23,-71.51
739.33,-71.51
739.44,-71.51
739.54,-71.51
739.64,-72.07
739.74,-71.51
739.84,-71.51
739.94,-72.07
740.04,-71.51
740.14,-71.79
740.24,-71.51
740.34,-71.51
740.45,-71.23
740.55,-71.23
740.65,-71.51
740.75,-71.79
740.85,-71.51
740.95,-71.51
741.05,-71.23
741.15,-71.51
741.25,-71.51
741.35,-71.79
741.46,-71.79
741.56,-71.23
741.66,-71.51
741.76,-71.51
741.86,-71.51
741.96,-71.51
742.06,-71.51
742.16,-71.51
742.26,-71.51
742.36,-71.51
742.47,-71.51
742.57,-71.23
742.67,-71.51
742.77,-71.23
742.87,-70.96
742.97,-71.23
743.07,-71.51
743.17,-71.51
743.27,-71.79
743.37,-71.23
743.48,-72.07
743.58,-71.51
743.68,-71.51
743.78,-70.96
743.88,-71.51
743.98,-71.51
744.08,-70.96
744.18,-71.79
744.28,-71.23
744.39,-71.51
744.48,-71.51
744.59,-71.51
744.69,-71.23
744.79,-71.23
744.89,-71.51
744.99,-71.23
745.09,-71.51
745.19,-71.23
745.29,-70.96
745.4,-71.23
745.5,-71.51
745.6,-70.68
745.7,-70.96
745.8,-71.51
745.9,-71.23
746,-71.23
746.1,-70.96
746.2,-70.96
746.3,-71.51
746.41,-70.96
746.51,-71.51
746.61,-70.96
746.71,-71.23
746.81,-71.23
746.91,-71.23
747.01,-71.23
747.11,-71.23
747.21,-71.23
747.31,-71.51
747.41,-71.51
747.52,-71.23
747.62,-71.23
747.72,-71.23
747.82,-70.96
747.92,-71.23
748.02,-70.68
748.12,-71.51
748.22,-71.51
748.32,-70.96
748.43,-71.23
748.53,-71.23
748.63,-71.51
748.73,-71.23
748.83,-71.23
748.93,-71.23
749.03,-71.51
749.13,-70.96
749.23,-71.23
749.33,-70.68
749.44,-71.51
749.54,-70.96
749.64,-71.51
749.74,-71.51
749.84,-71.23
749.94,-71.23
750.04,-71.23
750.14,-70.96
750.24,-71.23
750.34,-70.96
750.45,-71.51
750.55,-71.23
750.65,-70.96
750.75,-71.23
750.85,-71.23
750.95,-70.96
751.05,-70.68
751.15,-71.23
751.25,-70.68
751.35,-70.96
751.46,-70.68
751.56,-71.23
751.66,-71.23
751.76,-70.68
751.86,-70.68
751.96,-71.23
752.06,-70.68
752.16,-71.51
752.26,-71.23
752.36,-70.68
752.47,-71.23
752.57,-71.23
752.67,-70.68
752.77,-70.96
752.87,-70.96
752.97,-70.4
753.07,-70.96
753.17,-71.23
753.27,-71.23
753.38,-70.68
753.48,-70.96
753.58,-70.68
753.68,-71.23
753.78,-70.96
753.88,-70.96
753.98,-70.68
754.08,-70.68
754.18,-70.96
754.28,-70.96
754.39,-70.68
754.49,-70.68
754.59,-70.68
754.69,-70.96
754.79,-71.23
754.89,-70.68
754.99,-70.96
755.09,-70.4
755.19,-70.96
755.29,-70.96
755.4,-70.68
755.5,-70.68
755.6,-71.23
755.7,-70.96
755.8,-70.96
755.9,-70.68
756,-70.68
756.1,-70.96
756.2,-70.68
756.3,-70.68
756.41,-70.68
756.51,-70.96
756.61,-70.68
756.71,-71.23
756.81,-70.96
756.91,-70.68
757.01,-70.68
757.11,-70.68
757.21,-70.4
757.32,-70.4
757.41,-71.23
757.52,-70.68
757.62,-70.4
757.72,-70.4
757.82,-70.68
757.92,-70.4
758.02,-70.68
758.12,-70.4
758.22,-70.4
758.33,-70.68
758.43,-70.68
758.53,-70.68
758.63,-70.68
758.73,-70.68
758.83,-70.68
758.93,-70.4
759.03,-70.68
759.13,-70.68
759.23,-70.68
759.33,-70.4
759.44,-70.68
759.54,-70.4
759.64,-70.4
759.74,-70.68
759.84,-70.68
759.94,-70.4
760.04,-70.68
760.14,-70.68
760.24,-70.12
760.34,-70.68
760.45,-70.68
760.55,-70.68
760.65,-70.4
760.75,-70.4
760.85,-70.68
760.95,-70.68
761.05,-70.4
761.15,-70.4
761.25,-70.12
761.35,-70.68
761.46,-70.4
761.56,-70.12
761.66,-70.68
761.76,-70.4
761.86,-70.68
761.96,-70.4
762.06,-70.4
762.16,-70.4
762.26,-70.68
762.36,-70.68
762.47,-70.68
762.57,-70.4
762.67,-70.96
762.77,-70.4
762.87,-70.4
762.97,-70.4
763.07,-70.68
763.17,-70.4
763.28,-70.12
763.38,-70.68
763.48,-70.68
763.58,-70.68
763.68,-70.12
763.78,-70.68
763.88,-70.4
763.98,-70.12
764.08,-70.4
764.18,-70.4
764.28,-70.4
764.39,-70.4
764.49,-70.4
764.59,-70.4
764.69,-70.4
764.79,-70.68
764.89,-70.12
764.99,-70.4
765.09,-70.12
765.19,-70.12
765.29,-69.84
765.4,-70.68
765.5,-70.68
765.6,-70.4
765.7,-70.68
765.8,-70.4
765.9,-70.12
766,-70.4
766.1,-70.12
766.2,-70.4
766.3,-70.4
766.41,-69.84
766.51,-69.84
766.61,-69.84
766.71,-70.68
766.81,-70.12
766.91,-69.84
767.01,-70.12
767.11,-70.12
767.21,-70.4
767.32,-70.4
767.42,-70.4
767.52,-70.4
767.62,-70.12
767.72,-70.4
767.82,-70.12
767.92,-70.4
768.02,-70.12
768.12,-70.4
768.22,-69.84
768.33,-69.84
768.43,-70.12
768.53,-70.12
768.63,-70.12
768.73,-70.4
768.83,-70.4
768.93,-70.12
769.03,-70.12
769.13,-70.12
769.23,-70.12
769.34,-70.4
769.44,-70.12
769.54,-70.4
769.64,-70.4
769.74,-69.84
769.84,-70.12
769.94,-70.12
770.04,-70.12
770.14,-70.12
770.24,-69.84
770.34,-70.12
770.45,-70.12
770.55,-70.4
770.65,-70.12
770.75,-70.12
770.85,-70.12
770.95,-70.4
771.05,-70.12
771.15,-70.12
771.26,-69.84
771.35,-70.4
771.46,-70.12
771.56,-70.12
771.66,-70.4
771.76,-70.12
771.86,-70.12
771.96,-70.12
772.06,-70.12
772.16,-70.12
772.26,-69.84
772.37,-70.12
772.47,-69.84
772.57,-70.12
772.67,-70.12
772.77,-69.84
772.87,-70.12
772.97,-69.84
773.07,-70.12
773.17,-70.12
773.28,-70.12
773.38,-69.84
773.48,-69.84
773.58,-70.12
773.68,-70.12
773.78,-69.84
773.88,-69.56
773.98,-69.84
774.08,-69.84
774.18,-70.12
774.28,-69.84
774.39,-70.4
774.49,-70.4
774.59,-70.12
774.69,-69.84
774.79,-69.84
774.89,-70.12
774.99,-70.12
775.09,-69.84
775.19,-70.12
775.3,-69.84
775.4,-69.28
775.5,-69.28
775.6,-69.84
775.7,-69.84
775.8,-69.84
775.9,-69.84
776,-69.84
776.1,-70.12
776.2,-69.84
776.3,-69.84
776.41,-69.84
776.51,-70.12
776.61,-69.56
776.71,-69.84
776.81,-70.12
776.91,-70.12
777.01,-69.84
777.11,-69.56
777.21,-69.84
777.32,-69.84
777.42,-69.84
777.52,-69.84
777.62,-70.12
777.72,-69.84
777.82,-70.12
777.92,-69.84
778.02,-69.84
778.12,-69.84
778.22,-69.84
778.33,-70.12
778.43,-69.84
778.53,-69.84
778.63,-70.12
778.73,-69.84
778.83,-69.84
778.93,-69.84
779.03,-69.56
779.13,-69.56
779.23,-70.12
779.34,-69.56
779.44,-69.84
779.54,-69.84
779.64,-69.56
779.74,-69.56
779.84,-69.84
779.94,-69.56
780.04,-69.56
780.14,-69.84
780.24,-69.56
780.35,-69.56
780.45,-69.56
780.55,-69.56
780.65,-69.56
780.75,-69.84
780.85,-69.56
780.95,-69.56
781.05,-70.12
781.15,-69.56
781.26,-69.56
781.36,-69.84
781.46,-69.84
781.56,-69.56
781.66,-69.56
781.76,-69.84
781.86,-69.84
781.96,-69.84
782.06,-69.56
782.16,-69.28
782.27,-69.28
782.37,-69.84
782.47,-69.84
782.57,-70.12
782.67,-70.12
782.77,-69.84
782.87,-69.56
782.97,-69.56
783.07,-69.56
783.17,-69.56
783.28,-69.56
783.38,-69.56
783.48,-69.84
783.58,-69.56
783.68,-69.56
783.78,-69.28
783.88,-69.28
783.98,-69.56
784.08,-70.12
784.19,-69.56
784.28,-69.56
784.39,-69.84
784.49,-69.84
784.59,-69.56
784.69,-69.84
784.79,-69.56
784.89,-69.56
784.99,-69.56
785.09,-69.56
785.2,-69.28
785.3,-69.01
785.4,-69.28
785.5,-69.56
785.6,-69.56
785.7,-69.56
785.8,-69.28
785.9,-69.56
786,-69.56
786.1,-70.12
786.2,-69.28
786.31,-69.56
786.41,-69.56
786.51,-69.56
786.61,-69.28
786.71,-69.56
786.81,-69.56
786.91,-69.28
787.01,-69.28
787.11,-69.56
787.22,-69.28
787.32,-69.56
787.42,-69.56
787.52,-69.56
787.62,-69.28
787.72,-69.28
787.82,-69.56
787.92,-69.56
788.02,-69.28
788.12,-69.01
788.22,-69.28
788.33,-69.56
788.43,-69.56
788.53,-69.56
788.63,-69.56
788.73,-69.28
788.83,-69.28
788.93,-69.28
789.03,-69.01
789.13,-69.56
789.23,-69.01
789.34,-69.28
789.44,-69.56
789.54,-69.56
789.64,-69.28
789.74,-69.28
789.84,-69.56
789.94,-69.28
790.04,-69.56
790.15,-69.56
790.25,-68.73
790.35,-69.56
790.45,-69.28
790.55,-69.28
790.65,-69.28
790.75,-69.28
790.85,-69.01
790.95,-69.28
791.05,-69.28
791.15,-69.28
791.26,-68.73
791.36,-69.28
791.46,-69.56
791.56,-69.01
791.66,-69.28
791.76,-69.28
791.86,-69.28
791.96,-69.56
792.06,-69.28
792.16,-69.28
792.27,-69.01
792.37,-69.01
792.47,-69.01
792.57,-69.28
792.67,-69.28
792.77,-69.01
792.87,-69.01
792.97,-69.28
793.07,-69.01
793.17,-69.28
793.28,-69.01
793.38,-69.28
793.48,-69.28
793.58,-69.28
793.68,-68.73
793.78,-69.28
793.88,-69.01
793.98,-69.28
794.08,-69.28
794.19,-69.28
794.29,-69.01
794.39,-69.01
794.49,-69.28
794.59,-69.01
794.69,-69.01
794.79,-69.01
794.89,-69.01
794.99,-69.28
795.09,-69.01
795.2,-68.73
795.3,-69.01
795.4,-69.01
795.5,-69.01
795.6,-69.01
795.7,-68.73
795.8,-69.01
795.9,-69.01
796,-69.01
796.1,-69.01
796.21,-69.01
796.31,-68.73
796.41,-69.01
796.51,-69.01
796.61,-69.01
796.71,-69.28
796.81,-69.28
796.91,-69.28
797.01,-69.01
797.11,-69.01
797.22,-69.01
797.32,-69.01
797.42,-68.73
797.52,-68.45
797.62,-69.01
797.72,-69.01
797.82,-69.28
797.92,-68.73
798.02,-69.28
798.13,-69.01
798.22,-69.28
798.33,-69.28
798.43,-69.01
798.53,-69.28
798.63,-69.28
798.73,-69.01
798.83,-69.01
798.93,-68.73
799.03,-69.01
799.13,-68.73
799.24,-69.01
799.34,-69.01
799.44,-69.01
799.54,-68.73
799.64,-68.73
799.74,-68.73
799.84,-68.73
799.94,-68.73
800.04,-69.28
800.15,-69.01
800.25,-68.73
800.35,-68.73
800.45,-68.73
800.55,-69.01
800.65,-68.73
800.75,-69.01
800.85,-68.45
800.95,-68.73
801.05,-68.73
801.16,-68.73
801.26,-69.01
801.36,-69.01
801.46,-69.01
801.56,-68.73
801.66,-68.73
801.76,-69.01
801.86,-68.73
801.96,-68.45
802.06,-69.01
802.16,-69.28
802.27,-68.73
802.37,-69.01
802.47,-68.73
802.57,-68.45
802.67,-68.45
802.77,-68.45
802.87,-68.73
802.97,-68.45
803.07,-68.45
803.17,-69.01
803.28,-69.01
803.38,-69.01
803.48,-68.73
803.58,-68.73
803.68,-69.28
803.78,-68.73
803.88,-68.73
803.98,-69.01
804.08,-68.45
804.19,-68.45
804.29,-68.45
804.39,-68.73
804.49,-68.73
804.59,-68.45
804.69,-68.73
804.79,-68.73
804.89,-68.45
804.99,-68.45
805.09,-69.01
805.2,-68.45
805.3,-68.17
805.4,-68.73
805.5,-68.73
805.6,-69.01
805.7,-68.45
805.8,-68.73
805.9,-68.45
806,-68.73
806.1,-68.73
806.21,-68.17
806.31,-68.17
806.41,-68.45
806.51,-68.73
806.61,-68.73
806.71,-68.73
806.81,-68.73
806.91,-68.45
807.01,-68.73
807.11,-68.73
807.22,-68.73
807.32,-68.73
807.42,-68.45
807.52,-68.73
807.62,-68.45
807.72,-68.45
807.82,-68.45
807.92,-68.73
808.02,-68.45
808.13,-68.45
808.22,-68.45
808.33,-68.45
808.43,-68.45
808.53,-68.45
808.63,-68.17
808.73,-68.45
808.83,-68.45
808.93,-68.45
809.03,-68.45
809.14,-68.17
809.24,-68.73
809.34,-68.45
809.44,-68.45
809.54,-68.73
809.64,-68.45
809.74,-68.17
809.84,-68.73
809.94,-68.45
810.04,-68.45
810.15,-68.17
810.25,-68.45
810.35,-68.45
810.45,-68.45
810.55,-68.45
810.65,-68.73
810.75,-68.45
810.85,-68.45
810.95,-68.17
811.05,-68.17
811.16,-68.73
811.26,-68.73
811.36,-68.45
811.46,-68.45
811.56,-67.89
811.66,-68.45
811.76,-68.45
811.86,-68.17
811.96,-68.17
812.06,-68.45
812.17,-68.45
812.27,-68.17
812.37,-68.45
812.47,-68.45
812.57,-68.17
812.67,-68.45
812.77,-68.45
812.87,-68.17
812.97,-68.45
813.07,-68.17
813.17,-68.17
813.28,-68.17
813.38,-67.89
813.48,-68.45
813.58,-67.89
813.68,-67.89
813.78,-68.45
813.88,-68.17
813.98,-68.73
814.09,-68.17
814.19,-67.89
814.29,-68.45
814.39,-68.17
814.49,-68.45
814.59,-67.89
814.69,-67.89
814.79,-67.89
814.89,-68.17
814.99,-67.89
815.09,-68.45
815.2,-67.89
815.3,-68.17
815.4,-68.17
815.5,-68.45
815.6,-67.89
815.7,-68.17
815.8,-68.17
815.9,-68.17
816,-68.17
816.1,-67.61
816.21,-68.17
816.31,-68.45
816.41,-68.17
816.51,-67.89
816.61,-68.17
816.71,-68.17
816.81,-67.89
816.91,-68.73
817.01,-68.17
817.11,-68.45
817.22,-68.17
817.32,-67.89
817.42,-68.45
817.52,-67.89
817.62,-68.17
817.72,-68.17
817.82,-67.89
817.92,-67.89
818.02,-68.17
818.13,-68.17
818.23,-67.89
818.33,-67.61
818.43,-67.89
818.53,-68.17
818.63,-68.17
818.73,-68.17
818.83,-67.89
818.93,-68.45
819.03,-68.17
819.14,-67.89
819.24,-67.89
819.34,-68.45
819.44,-68.17
819.54,-68.17
819.64,-67.89
819.74,-67.89
819.84,-67.89
819.94,-67.89
820.04,-67.89
820.15,-67.89
820.25,-67.61
820.35,-67.89
820.45,-68.17
820.55,-68.17
820.65,-67.89
820.75,-67.89
820.85,-68.17
820.95,-67.61
821.05,-67.61
821.16,-67.89
821.26,-67.61
821.36,-67.61
821.46,-67.89
821.56,-67.34
821.66,-67.61
821.76,-68.45
821.86,-67.89
821.96,-67.89
822.07,-68.17
822.17,-68.17
822.27,-67.89
822.37,-67.34
822.47,-67.89
822.57,-67.89
822.67,-68.17
822.77,-67.61
822.87,-67.89
822.97,-67.89
823.07,-67.61
823.18,-67.61
823.28,-68.17
823.38,-68.17
823.48,-68.17
823.58,-67.61
823.68,-68.17
823.78,-67.89
823.88,-67.89
823.98,-67.89
824.09,-68.17
824.19,-68.17
824.29,-67.89
824.39,-67.61
824.49,-67.89
824.59,-68.17
824.69,-67.34
824.79,-67.34
824.89,-67.89
824.99,-67.61
825.09,-67.61
825.2,-67.89
825.3,-68.45
825.4,-67.89
825.5,-67.89
825.6,-67.89
825.7,-67.89
825.8,-67.89
825.9,-68.17
826,-67.89
826.1,-67.89
826.21,-67.89
826.31,-67.61
826.41,-67.61
826.51,-67.34
826.61,-67.34
826.71,-67.89
826.81,-67.61
826.91,-67.61
827.01,-67.61
827.11,-67.61
827.22,-67.61
827.32,-67.61
827.42,-67.34
827.52,-67.06
827.62,-67.61
827.72,-67.89
827.82,-67.61
827.92,-67.89
828.02,-67.89
828.13,-67.06
828.23,-67.61
828.33,-67.34
828.43,-67.61
828.53,-67.89
828.63,-67.34
828.73,-67.61
828.83,-67.61
828.93,-67.61
829.03,-67.61
829.14,-67.61
829.24,-67.61
829.34,-67.61
829.44,-67.61
829.54,-67.89
829.64,-67.61
829.74,-67.34
829.84,-67.34
829.94,-67.61
830.04,-67.61
830.15,-67.61
830.25,-67.61
830.35,-67.34
830.45,-67.34
830.55,-67.34
830.65,-67.61
830.75,-67.61
830.85,-67.61
830.95,-67.34
831.05,-67.61
831.16,-67.61
831.26,-67.61
831.36,-67.61
831.46,-67.89
831.56,-67.34
831.66,-67.61
831.76,-67.89
831.86,-67.61
831.96,-67.61
832.07,-67.61
832.17,-67.34
832.27,-67.34
832.37,-67.34
832.47,-67.34
832.57,-67.34
832.67,-67.61
832.77,-67.61
832.87,-67.34
832.97,-67.34
833.08,-67.34
833.18,-67.61
833.28,-67.61
833.38,-67.61
833.48,-67.89
833.58,-67.34
833.68,-67.06
833.78,-67.34
833.88,-67.06
833.98,-67.34
834.09,-67.06
834.19,-67.06
834.29,-67.61
834.39,-67.34
834.49,-67.34
834.59,-67.61
834.69,-67.89
834.79,-67.34
834.89,-67.34
835,-67.61
835.09,-67.06
835.2,-67.34
835.3,-67.06
835.4,-67.06
835.5,-67.34
835.6,-67.34
835.7,-67.34
835.8,-67.06
835.9,-67.61
836,-67.34
836.11,-67.34
836.21,-67.61
836.31,-67.34
836.41,-67.34
836.51,-67.34
836.61,-67.61
836.71,-67.06
836.81,-67.06
836.91,-67.06
837.01,-67.34
837.11,-67.61
837.22,-67.06
837.32,-67.34
837.42,-67.06
837.52,-67.06
837.62,-67.34
837.72,-67.34
837.82,-67.06
837.92,-67.34
838.03,-67.61
838.13,-67.06
838.23,-67.34
838.33,-67.89
838.43,-67.06
838.53,-67.34
838.63,-67.34
838.73,-67.34
838.83,-67.06
838.93,-67.06
839.03,-67.61
839.14,-67.34
839.24,-66.78
839.34,-67.06
839.44,-67.61
839.54,-67.61
839.64,-67.06
839.74,-67.34
839.84,-67.34
839.94,-67.06
840.04,-67.06
840.15,-67.06
840.25,-67.34
840.35,-67.06
840.45,-67.06
840.55,-67.06
840.65,-67.06
840.75,-67.06
840.85,-66.78
840.95,-67.06
841.05,-67.06
841.16,-67.34
841.26,-67.34
841.36,-67.34
841.46,-67.34
841.56,-67.34
841.66,-67.06
841.76,-67.06
841.86,-67.34
841.96,-67.06
842.07,-67.06
842.17,-67.06
842.27,-67.34
842.37,-67.06
842.47,-67.06
842.57,-66.78
842.67,-67.06
842.77,-66.78
842.87,-67.34
842.97,-67.06
843.08,-67.06
843.18,-67.34
843.28,-67.34
843.38,-67.34
843.48,-67.34
843.58,-67.06
843.68,-67.34
843.78,-67.06
843.88,-67.06
843.98,-67.06
844.09,-66.78
844.19,-67.34
844.29,-66.78
844.39,-67.06
844.49,-67.06
844.59,-67.06
844.69,-67.06
844.79,-66.78
844.89,-67.06
844.99,-67.06
845.09,-67.06
845.2,-67.06
845.3,-66.78
845.4,-66.78
845.5,-66.78
845.6,-67.06
845.7,-66.78
845.8,-67.06
845.9,-67.06
846.01,-66.5
846.1,-66.78
846.21,-66.78
846.31,-66.78
846.41,-67.06
846.51,-66.78
846.61,-67.06
846.71,-67.06
846.81,-66.78
846.91,-67.06
847.01,-67.06
847.12,-66.78
847.22,-67.06
847.32,-66.78
847.42,-67.06
847.52,-66.78
847.62,-66.78
847.72,-66.78
847.82,-67.06
847.92,-66.78
848.03,-66.78
848.13,-66.78
848.23,-67.06
848.33,-67.06
848.43,-66.78
848.53,-66.78
848.63,-66.78
848.73,-66.78
848.83,-66.78
848.93,-66.78
849.03,-67.34
849.14,-66.78
849.24,-66.78
849.34,-66.78
849.44,-66.78
849.54,-66.78
849.64,-66.5
849.74,-66.78
849.84,-66.78
849.94,-66.78
850.04,-66.5
850.15,-67.06
850.25,-66.78
850.35,-66.5
850.45,-66.5
850.55,-66.78
850.65,-66.5
850.75,-67.06
850.85,-66.5
850.95,-66.78
851.05,-66.78
851.16,-66.5
851.26,-66.22
851.36,-66.78
851.46,-66.5
851.56,-66.78
851.66,-66.5
851.76,-66.78
851.86,-66.78
851.96,-66.5
852.07,-66.5
852.17,-67.06
852.27,-66.78
852.37,-66.5
852.47,-66.78
852.57,-67.06
852.67,-66.78
852.77,-66.78
852.87,-66.78
852.97,-66.5
853.08,-66.5
853.18,-66.5
853.28,-66.22
853.38,-66.5
853.48,-66.5
853.58,-66.78
853.68,-66.5
853.78,-66.5
853.88,-66.78
853.98,-66.78
854.09,-66.5
854.19,-66.5
854.29,-66.5
854.39,-66.5
854.49,-66.5
854.59,-66.5
854.69,-66.78
854.79,-66.5
854.89,-66.5
854.99,-66.5
855.1,-66.22
855.2,-66.5
855.3,-66.5
855.4,-66.78
855.5,-66.78
855.6,-66.5
855.7,-66.78
855.8,-66.78
855.9,-66.5
856.01,-66.78
856.1,-66.5
856.21,-66.5
856.31,-66.5
856.41,-66.78
856.51,-66.22
856.61,-66.22
856.71,-66.22
856.81,-66.78
856.91,-66.78
857.02,-66.5
857.12,-66.78
857.22,-66.22
857.32,-66.5
857.42,-66.5
857.52,-66.5
857.62,-66.5
857.72,-67.06
857.82,-66.5
857.92,-66.5
858.03,-66.78
858.13,-66.78
858.23,-66.22
858.33,-66.5
858.43,-66.5
858.53,-66.5
858.63,-66.22
858.73,-65.94
858.83,-66.22
858.93,-66.22
859.03,-67.06
859.14,-66.5
859.24,-66.5
859.34,-66.5
859.44,-66.5
859.54,-66.5
859.64,-66.22
859.74,-66.78
859.84,-66.22
859.94,-66.22
860.05,-66.22
860.15,-66.5
860.25,-66.5
860.35,-65.94
860.45,-66.5
860.55,-66.5
860.65,-66.22
860.75,-66.22
860.85,-66.22
860.95,-66.5
861.06,-66.5
861.16,-66.22
861.26,-66.5
861.36,-66.22
861.46,-66.22
861.56,-66.5
861.66,-66.22
861.76,-66.22
861.86,-66.5
861.97,-65.94
862.07,-66.22
862.17,-66.5
862.27,-66.5
862.37,-65.94
862.47,-66.22
862.57,-66.22
862.67,-65.94
862.77,-66.22
862.87,-66.22
862.97,-65.94
863.08,-66.5
863.18,-66.22
863.28,-66.5
863.38,-66.5
863.48,-65.94
863.58,-66.78
863.68,-66.5
863.78,-65.94
863.88,-66.5
863.98,-66.22
864.09,-66.22
864.19,-66.22
864.29,-66.22
864.39,-66.5
864.49,-66.5
864.59,-66.22
864.69,-66.22
864.79,-66.22
864.89,-66.5
865,-66.5
865.1,-65.94
865.2,-66.22
865.3,-66.78
865.4,-66.5
865.5,-66.22
865.6,-65.94
865.7,-65.94
865.8,-66.22
865.9,-66.22
866.01,-66.22
866.11,-65.94
866.21,-65.94
866.31,-66.5
866.41,-66.5
866.51,-65.94
866.61,-65.94
866.71,-66.22
866.81,-66.5
866.91,-65.94
867.02,-65.67
867.12,-65.67
867.22,-66.22
867.32,-66.22
867.42,-65.94
867.52,-65.94
867.62,-65.94
867.72,-65.94
867.82,-65.94
867.92,-66.22
868.03,-65.94
868.13,-66.22
868.23,-65.94
868.33,-66.22
868.43,-66.5
868.53,-66.22
868.63,-66.22
868.73,-66.22
868.83,-66.22
868.93,-66.22
869.04,-65.67
869.14,-66.22
869.24,-65.94
869.34,-65.94
869.44,-66.22
869.54,-65.94
869.64,-66.22
869.74,-65.94
869.84,-65.94
869.95,-65.94
870.05,-65.94
870.15,-65.67
870.25,-65.67
870.35,-66.22
870.45,-66.22
870.55,-65.94
870.65,-65.67
870.75,-65.39
870.85,-65.94
870.96,-65.94
871.06,-65.94
871.16,-65.94
871.26,-65.67
871.36,-65.94
871.46,-65.94
871.56,-66.22
871.66,-65.94
871.76,-65.94
871.86,-65.94
871.97,-65.94
872.07,-65.67
872.17,-65.94
872.27,-65.67
872.37,-65.94
872.47,-65.94
872.57,-65.94
872.67,-65.67
872.77,-65.94
872.88,-65.67
872.97,-65.39
873.08,-66.22
873.18,-65.94
873.28,-65.94
873.38,-66.22
873.48,-65.94
873.58,-65.94
873.68,-65.67
873.78,-65.94
873.88,-65.94
873.99,-66.22
874.09,-65.94
874.19,-65.94
874.29,-65.67
874.39,-66.22
874.49,-65.39
874.59,-65.94
874.69,-65.67
874.79,-65.67
874.9,-66.22
875,-65.67
875.1,-65.94
875.2,-65.94
875.3,-65.67
875.4,-65.67
875.5,-66.22
875.6,-66.22
875.7,-65.94
875.8,-66.22
875.91,-65.67
876.01,-65.94
876.11,-65.39
876.21,-65.94
876.31,-66.22
876.41,-65.67
876.51,-65.67
876.61,-65.67
876.71,-65.67
876.81,-65.67
876.91,-65.94
877.02,-65.67
877.12,-65.39
877.22,-65.67
877.32,-65.67
877.42,-65.67
877.52,-65.67
877.62,-65.39
877.72,-65.94
877.82,-65.94
877.92,-65.39
878.03,-65.94
878.13,-65.67
878.23,-65.39
878.33,-65.67
878.43,-65.39
878.53,-65.94
878.63,-65.67
878.73,-65.11
878.83,-65.94
878.94,-65.67
879.04,-65.39
879.14,-65.94
879.24,-65.94
879.34,-65.67
879.44,-65.67
879.54,-65.67
879.64,-65.94
879.74,-65.67
879.84,-65.67
879.95,-65.67
880.05,-65.39
880.15,-65.67
880.25,-65.67
880.35,-65.67
880.45,-65.39
880.55,-65.67
880.65,-65.94
880.75,-65.94
880.85,-65.39
880.96,-65.67
881.06,-65.67
881.16,-65.11
881.26,-65.11
881.36,-65.67
881.46,-65.39
881.56,-65.11
881.66,-65.11
881.76,-65.67
881.86,-65.11
881.97,-65.67
882.07,-65.67
882.17,-65.67
882.27,-65.11
882.37,-65.67
882.47,-65.67
882.57,-65.67
882.67,-65.67
882.77,-65.94
882.88,-65.39
882.98,-65.39
883.08,-65.39
883.18,-65.11
883.28,-65.67
883.38,-65.67
883.48,-65.11
883.58,-65.67
883.68,-65.94
883.78,-65.39
883.89,-65.67
883.99,-65.39
884.09,-65.67
884.19,-65.11
884.29,-65.94
884.39,-65.11
884.49,-65.39
884.59,-65.11
884.69,-65.39
884.79,-65.67
884.9,-65.67
885,-64.83
885.1,-65.39
885.2,-65.39
885.3,-65.39
885.4,-65.11
885.5,-65.67
885.6,-65.39
885.7,-65.67
885.8,-65.11
885.91,-65.39
886.01,-65.39
886.11,-65.39
886.21,-65.11
886.31,-65.39
886.41,-65.39
886.51,-65.67
886.61,-65.11
886.71,-65.39
886.81,-65.94
886.92,-65.39
887.02,-65.67
887.12,-65.39
887.22,-65.39
887.32,-65.67
887.42,-65.39
887.52,-65.39
887.62,-65.39
887.72,-65.11
887.83,-65.67
887.92,-65.11
888.03,-64.83
888.13,-65.11
888.23,-65.39
888.33,-65.11
888.43,-64.83
888.53,-65.39
888.63,-65.11
888.73,-65.39
888.84,-65.67
888.94,-65.39
889.04,-65.94
889.14,-65.39
889.24,-65.39
889.34,-65.11
889.44,-65.11
889.54,-65.39
889.64,-65.11
889.74,-65.11
889.84,-65.67
889.95,-65.39
890.05,-65.39
890.15,-65.11
890.25,-65.11
890.35,-65.11
890.45,-65.11
890.55,-65.39
890.65,-65.11
890.76,-65.39
890.85,-65.11
890.96,-65.39
891.06,-65.39
891.16,-65.11
891.26,-65.11
891.36,-65.39
891.46,-65.11
891.56,-64.83
891.66,-65.39
891.76,-64.83
891.87,-65.11
891.97,-64.83
892.07,-65.11
892.17,-65.11
892.27,-65.39
892.37,-65.11
892.47,-64.83
892.57,-65.67
892.67,-65.39
892.78,-65.39
892.88,-65.39
892.98,-65.39
893.08,-65.39
893.18,-64.83
893.28,-65.11
893.38,-65.39
893.48,-65.39
893.58,-64.83
893.68,-65.11
893.78,-65.11
893.89,-65.11
893.99,-64.83
894.09,-65.11
894.19,-64.83
894.29,-65.11
894.39,-64.83
894.49,-65.11
894.59,-65.39
894.69,-65.11
894.79,-65.11
894.9,-64.83
895,-65.11
895.1,-65.39
895.2,-64.83
895.3,-65.11
895.4,-64.83
895.5,-64.83
895.6,-65.11
895.7,-65.11
895.8,-65.11
895.91,-64.55
896.01,-64.83
896.11,-65.11
896.21,-65.39
896.31,-64.83
896.41,-65.39
896.51,-65.39
896.61,-65.11
896.71,-64.55
896.82,-64.55
896.92,-65.39
897.02,-64.83
897.12,-64.83
897.22,-65.11
897.32,-64.83
897.42,-65.11
897.52,-64.83
897.62,-65.11
897.72,-64.83
897.83,-65.11
897.93,-64.83
898.03,-65.11
898.13,-65.11
898.23,-65.11
898.33,-65.11
898.43,-65.11
898.53,-65.11
898.63,-65.11
898.73,-64.83
898.84,-64.83
898.94,-64.83
899.04,-64.83
899.14,-64.83
899.24,-64.83
899.34,-64.83
899.44,-64.55
899.54,-64.83
899.64,-65.11
899.74,-64.83
899.85,-65.11
899.95,-64.83
900.05,-65.11
900.15,-64.83
900.25,-65.11
900.35,-64.55
900.45,-65.39
900.55,-65.11
900.65,-64.55
900.76,-64.83
900.85,-64.83
900.96,-65.11
901.06,-64.83
901.16,-64.83
901.26,-64.83
901.36,-64.83
901.46,-64.83
901.56,-64.83
901.66,-64.83
901.77,-64.55
901.87,-64.83
901.97,-65.11
902.07,-65.11
902.17,-64.55
902.27,-65.11
902.37,-64.83
902.47,-64.83
902.57,-64.83
902.67,-64.55
902.78,-65.11
902.88,-64.55
902.98,-64.83
903.08,-64.55
903.18,-64.83
903.28,-64.83
903.38,-64.83
903.48,-64.83
903.58,-64.83
903.69,-64.55
903.78,-64.83
903.89,-64.83
903.99,-64.83
904.09,-64.55
904.19,-64.83
904.29,-64.55
904.39,-64.83
904.49,-65.11
904.59,-65.11
904.69,-64.83
904.8,-64.55
904.9,-64.83
905,-64.83
905.1,-64.83
905.2,-64.83
905.3,-64.83
905.4,-65.11
905.5,-64.83
905.6,-64.55
905.7,-64.27
905.8,-64.27
905.91,-64.83
906.01,-64.55
906.11,-64.83
906.21,-64.55
906.31,-64.83
906.41,-64.55
906.51,-64.55
906.61,-64.55
906.72,-65.11
906.82,-64.83
906.92,-65.11
907.02,-64.55
907.12,-64.27
907.22,-64.27
907.32,-64.55
907.42,-64.55
907.52,-64.55
907.62,-64.83
907.72,-64.55
907.83,-64.55
907.93,-64.83
908.03,-64.83
908.13,-64.55
908.23,-64.27
908.33,-64.55
908.43,-64.27
908.53,-64.55
908.63,-64.55
908.73,-64.83
908.84,-64.55
908.94,-64.27
909.04,-64.27
909.14,-64.83
909.24,-64.55
909.34,-65.11
909.44,-64.55
909.54,-64.27
909.64,-64.83
909.75,-64.83
909.85,-64.55
909.95,-64.83
910.05,-65.11
910.15,-64.55
910.25,-64.55
910.35,-64.27
910.45,-64.27
910.55,-64.27
910.65,-64.55
910.76,-64.55
910.86,-64.55
910.96,-64.55
911.06,-64.55
911.16,-64.55
911.26,-64.83
911.36,-64.55
911.46,-64.27
911.56,-64.27
911.66,-64.55
911.77,-64.55
911.87,-64.27
911.97,-64.27
912.07,-64.55
912.17,-64.27
912.27,-64.55
912.37,-64.27
912.47,-64.27
912.57,-64.55
912.67,-64.55
912.78,-64.27
912.88,-64.27
912.98,-64.55
913.08,-64.55
913.18,-64.27
913.28,-64.27
913.38,-64.27
913.48,-64.83
913.58,-64.55
913.69,-64.55
913.78,-64.55
913.89,-64
913.99,-64
914.09,-64.27
914.19,-64.27
914.29,-64.27
914.39,-64.27
914.49,-64.55
914.59,-64.27
914.7,-64.27
914.8,-64.55
914.9,-64.27
915,-63.72
915.1,-64.55
915.2,-64.83
915.3,-64.27
915.4,-64.27
915.5,-63.72
915.6,-64.27
915.71,-64.55
915.81,-64
915.91,-64
916.01,-64.27
916.11,-64.55
916.21,-64.27
916.31,-64.55
916.41,-64.27
916.51,-64.27
916.61,-64.27
916.72,-64.55
916.82,-64.83
916.92,-64.55
917.02,-64
917.12,-64.55
917.22,-64
917.32,-64.27
917.42,-64
917.52,-64.27
917.62,-64.27
917.73,-64.27
917.83,-64.55
917.93,-64.27
918.03,-64
918.13,-64
918.23,-64.27
918.33,-64
918.43,-64.27
918.53,-64.27
918.63,-64.83
918.73,-64.27
918.84,-64.27
918.94,-64
919.04,-64.27
919.14,-64.27
919.24,-64.27
919.34,-64
919.44,-64.27
919.54,-64
919.65,-64.27
919.75,-64
919.85,-64.55
919.95,-64.27
920.05,-64.55
920.15,-64.27
920.25,-63.72
920.35,-64.27
920.45,-64.27
920.55,-64
920.65,-64.27
920.76,-64.27
920.86,-64.27
920.96,-64.27
921.06,-63.72
921.16,-64.27
921.26,-64.27
921.36,-64
921.46,-64.27
921.56,-64
921.66,-64.27
921.77,-64
921.87,-64.55
921.97,-64.27
922.07,-64
922.17,-64
922.27,-64
922.37,-64.27
922.47,-64
922.57,-64
922.67,-63.72
922.78,-63.44
922.88,-64.27
922.98,-63.72
923.08,-64
923.18,-64
923.28,-64
923.38,-64
923.48,-64
923.58,-64
923.69,-64.27
923.79,-64
923.89,-64
923.99,-64.27
924.09,-63.72
924.19,-64
924.29,-63.72
924.39,-64
924.49,-64
924.59,-64.27
924.7,-63.72
924.8,-63.72
924.9,-64
925,-63.44
925.1,-64.55
925.2,-64
925.3,-64.27
925.4,-64
925.5,-64.55
925.6,-63.72
925.71,-63.72
925.81,-64
925.91,-64.27
926.01,-63.72
926.11,-63.44
926.21,-64
926.31,-64
926.41,-64.27
926.51,-64
926.61,-63.72
926.72,-64.27
926.82,-64
926.92,-64
927.02,-64
927.12,-64
927.22,-64
927.32,-64
927.42,-64
927.52,-64
927.63,-63.72
927.72,-64
927.83,-63.72
927.93,-64
928.03,-64
928.13,-63.72
928.23,-64
928.33,-64.27
928.43,-63.72
928.53,-63.16
928.63,-64
928.74,-64
928.84,-63.72
928.94,-64
929.04,-64
929.14,-64
929.24,-63.72
929.34,-63.72
929.44,-63.72
929.54,-63.72
929.65,-64
929.75,-63.72
929.85,-63.44
929.95,-64
930.05,-64
930.15,-64
930.25,-63.72
930.35,-64
930.45,-63.44
930.55,-63.72
930.66,-64
930.76,-64
930.86,-64
930.96,-63.44
931.06,-63.44
931.16,-63.44
931.26,-64
931.36,-63.44
931.46,-64
931.56,-64
931.66,-63.72
931.77,-63.72
931.87,-63.44
931.97,-64
932.07,-63.44
932.17,-63.44
932.27,-64
932.37,-64
932.47,-63.72
932.57,-63.44
932.67,-63.16
932.78,-63.72
932.88,-63.72
932.98,-63.72
933.08,-63.72
933.18,-63.72
933.28,-63.72
933.38,-63.72
933.48,-64
933.58,-64
933.69,-63.44
933.79,-63.44
933.89,-63.72
933.99,-64
934.09,-63.72
934.19,-63.72
934.29,-64.27
934.39,-63.72
934.49,-63.72
934.59,-63.72
934.7,-63.72
934.8,-64
934.9,-63.72
935,-63.72
935.1,-63.72
935.2,-63.44
935.3,-63.44
935.4,-63.72
935.5,-64
935.6,-63.72
935.71,-63.16
935.81,-63.72
935.91,-63.44
936.01,-63.44
936.11,-64
936.21,-63.44
936.31,-64
936.41,-63.72
936.51,-63.72
936.61,-63.72
936.72,-63.44
936.82,-63.72
936.92,-63.72
937.02,-64
937.12,-63.44
937.22,-63.16
937.32,-63.44
937.42,-63.44
937.52,-63.16
937.63,-63.72
937.72,-63.72
937.83,-63.72
937.93,-63.44
938.03,-63.16
938.13,-63.72
938.23,-63.44
938.33,-64
938.43,-63.72
938.53,-63.72
938.64,-64.27
938.74,-63.44
938.84,-64
938.94,-63.44
939.04,-63.72
939.14,-63.44
939.24,-63.44
939.34,-63.44
939.44,-64
939.54,-63.44
939.65,-63.16
939.75,-63.44
939.85,-63.44
939.95,-63.16
940.05,-63.44
940.15,-63.44
940.25,-63.16
940.35,-63.44
940.45,-63.44
940.55,-63.72
940.66,-63.44
940.76,-63.16
940.86,-63.72
940.96,-63.44
941.06,-63.44
941.16,-63.16
941.26,-63.44
941.36,-63.44
941.46,-63.44
941.56,-63.72
941.67,-63.44
941.77,-63.44
941.87,-63.44
941.97,-63.44
942.07,-63.72
942.17,-63.44
942.27,-63.44
942.37,-63.16
942.47,-63.44
942.58,-63.44
942.67,-63.16
942.78,-63.72
942.88,-63.44
942.98,-63.16
943.08,-63.16
943.18,-63.44
943.28,-63.44
943.38,-63.44
943.48,-63.16
943.59,-63.16
943.69,-63.72
943.79,-63.44
943.89,-63.44
943.99,-63.72
944.09,-63.44
944.19,-62.88
944.29,-62.88
944.39,-63.44
944.49,-63.16
944.59,-63.44
944.7,-62.88
944.8,-63.44
944.9,-62.88
945,-63.72
945.1,-63.44
945.2,-63.44
945.3,-63.16
945.4,-63.16
945.5,-63.16
945.6,-63.44
945.71,-63.44
945.81,-63.44
945.91,-63.44
946.01,-63.44
946.11,-62.6
946.21,-62.88
946.31,-63.16
946.41,-63.16
946.51,-63.16
946.61,-63.16
946.72,-62.88
946.82,-63.16
946.92,-63.72
947.02,-63.16
947.12,-63.44
947.22,-63.44
947.32,-62.88
947.42,-63.16
947.52,-63.44
947.63,-63.16
947.73,-63.16
947.83,-63.16
947.93,-62.88
948.03,-63.16
948.13,-63.16
948.23,-63.16
948.33,-63.44
948.43,-63.44
948.53,-63.44
948.64,-63.16
948.74,-63.16
948.84,-63.16
948.94,-63.44
949.04,-62.88
949.14,-63.44
949.24,-63.16
949.34,-62.88
949.44,-63.16
949.54,-62.88
949.65,-63.44
949.75,-63.44
949.85,-63.16
949.95,-63.44
950.05,-62.88
950.15,-62.88
950.25,-63.44
950.35,-63.44
950.45,-63.16
950.55,-63.16
950.66,-62.88
950.76,-63.16
950.86,-63.44
950.96,-62.88
951.06,-62.88
951.16,-62.88
951.26,-63.16
951.36,-62.6
951.46,-62.88
951.57,-62.88
951.67,-62.88
951.77,-63.16
951.87,-62.88
951.97,-63.16
952.07,-63.16
952.17,-63.16
952.27,-62.88
952.37,-63.16
952.47,-62.88
952.58,-62.88
952.68,-63.16
952.78,-62.6
952.88,-62.88
952.98,-62.6
953.08,-62.88
953.18,-63.16
953.28,-62.88
953.38,-63.16
953.48,-62.6
953.59,-63.16
953.69,-63.16
953.79,-62.88
953.89,-63.72
953.99,-62.88
954.09,-62.88
954.19,-63.16
954.29,-63.16
954.39,-62.6
954.49,-62.6
954.59,-62.6
954.7,-63.16
954.8,-62.88
954.9,-62.88
955,-63.16
955.1,-62.88
955.2,-62.88
955.3,-62.88
955.4,-63.16
955.5,-62.6
955.61,-62.6
955.71,-62.88
955.81,-63.44
955.91,-62.88
956.01,-62.88
956.11,-63.16
956.21,-62.88
956.31,-62.88
956.41,-62.33
956.52,-62.6
956.61,-62.88
956.72,-63.16
956.82,-63.16
956.92,-62.6
957.02,-62.88
957.12,-63.16
957.22,-63.16
957.32,-62.88
957.42,-62.88
957.52,-62.88
957.63,-63.16
957.73,-62.88
957.83,-62.88
957.93,-63.44
958.03,-62.88
958.13,-62.6
958.23,-62.88
958.33,-62.88
958.43,-62.88
958.53,-62.6
958.64,-62.6
958.74,-62.6
958.84,-63.16
958.94,-62.88
959.04,-62.88
959.14,-62.88
959.24,-62.88
959.34,-62.88
959.44,-62.88
959.54,-62.88
959.65,-62.33
959.75,-62.88
959.85,-62.6
959.95,-63.16
960.05,-62.88
960.15,-62.88
960.25,-62.6
960.35,-62.33
960.45,-62.6
960.56,-62.6
960.66,-62.6
960.76,-62.88
960.86,-62.6
960.96,-63.16
961.06,-62.6
961.16,-63.16
961.26,-62.6
961.36,-62.88
961.46,-62.33
961.57,-62.6
961.67,-62.88
961.77,-62.88
961.87,-63.44
961.97,-62.88
962.07,-62.88
962.17,-62.88
962.27,-62.88
962.37,-62.6
962.47,-62.6
962.58,-62.6
962.68,-62.33
962.78,-62.6
962.88,-62.6
962.98,-62.88
963.08,-62.6
963.18,-62.6
963.28,-62.6
963.38,-62.88
963.48,-62.88
963.59,-62.88
963.69,-62.33
963.79,-62.6
963.89,-62.6
963.99,-62.88
964.09,-62.33
964.19,-62.88
964.29,-62.88
964.39,-62.33
964.5,-62.6
964.59,-63.16
964.7,-62.6
964.8,-62.6
964.9,-62.33
965,-62.6
965.1,-62.6
965.2,-62.88
965.3,-62.6
965.4,-62.6
965.51,-62.88
965.61,-62.33
965.71,-62.6
965.81,-62.6
965.91,-62.6
966.01,-62.88
966.11,-62.6
966.21,-62.6
966.31,-62.6
966.41,-62.6
966.52,-62.33
966.62,-62.6
966.72,-62.6
966.82,-62.33
966.92,-62.88
967.02,-62.6
967.12,-62.05
967.22,-62.33
967.32,-62.6
967.42,-62.6
967.53,-62.6
967.63,-62.6
967.73,-62.88
967.83,-62.33
967.93,-62.6
968.03,-62.33
968.13,-62.6
968.23,-62.05
968.33,-62.33
968.43,-62.6
968.53,-62.05
968.64,-62.33
968.74,-62.88
968.84,-62.6
968.94,-62.6
969.04,-62.6
969.14,-62.6
969.24,-62.33
969.34,-62.6
969.44,-62.6
969.54,-62.6
969.65,-61.77
969.75,-62.33
969.85,-62.88
969.95,-62.33
970.05,-62.33
970.15,-62.6
970.25,-62.33
970.35,-62.33
970.46,-62.6
970.55,-62.88
970.66,-62.6
970.76,-62.05
970.86,-62.6
970.96,-62.33
971.06,-62.6
971.16,-62.6
971.26,-62.33
971.36,-62.33
971.46,-62.33
971.57,-62.05
971.67,-62.6
971.77,-62.6
971.87,-62.6
971.97,-62.6
972.07,-62.33
972.17,-62.33
972.27,-62.6
972.37,-62.05
972.47,-62.88
972.58,-62.33
972.68,-62.33
972.78,-62.6
972.88,-62.6
972.98,-62.6
973.08,-62.33
973.18,-62.05
973.28,-62.05
973.38,-61.77
973.48,-61.77
973.59,-62.05
973.69,-62.88
973.79,-62.6
973.89,-62.33
973.99,-62.6
974.09,-62.33
974.19,-62.33
974.29,-62.33
974.39,-62.33
974.5,-62.6
974.6,-62.33
974.7,-62.33
974.8,-62.6
974.9,-62.88
975,-62.33
975.1,-62.05
975.2,-62.33
975.3,-62.6
975.4,-62.6
975.51,-62.33
975.61,-62.33
975.71,-62.6
975.81,-62.05
975.91,-62.6
976.01,-62.33
976.11,-62.6
976.21,-62.05
976.31,-62.05
976.41,-62.05
976.52,-62.33
976.62,-62.05
976.72,-61.77
976.82,-62.05
976.92,-62.05
977.02,-62.33
977.12,-62.6
977.22,-62.6
977.32,-62.33
977.42,-62.33
977.53,-62.33
977.63,-62.05
977.73,-62.33
977.83,-62.05
977.93,-62.05
978.03,-62.05
978.13,-62.33
978.23,-62.33
978.33,-62.33
978.44,-62.05
978.53,-62.33
978.64,-62.33
978.74,-62.05
978.84,-62.33
978.94,-62.6
979.04,-62.05
979.14,-62.33
979.24,-62.33
979.34,-62.33
979.44,-62.33
979.55,-61.77
979.65,-62.33
979.75,-62.05
979.85,-61.77
979.95,-61.77
980.05,-62.05
980.15,-62.33
980.25,-62.6
980.35,-62.05
980.46,-62.05
980.55,-61.77
980.66,-62.05
980.76,-62.05
980.86,-62.05
980.96,-62.05
981.06,-62.33
981.16,-62.05
981.26,-62.33
981.36,-62.33
981.47,-62.05
981.57,-62.33
981.67,-62.05
981.77,-62.33
981.87,-62.05
981.97,-62.33
982.07,-62.05
982.17,-62.33
982.27,-61.77
982.37,-62.33
982.47,-62.05
982.58,-62.05
982.68,-61.77
982.78,-62.6
982.88,-62.05
982.98,-62.05
983.08,-62.05
983.18,-62.05
983.28,-62.05
983.38,-62.05
983.48,-61.77
983.59,-62.05
983.69,-62.33
983.79,-62.05
983.89,-62.05
983.99,-62.05
984.09,-61.77
984.19,-62.33
984.29,-61.77
984.39,-62.05
984.5,-61.77
984.6,-61.77
984.7,-62.05
984.8,-62.6
984.9,-61.77
985,-61.77
985.1,-61.77
985.2,-62.05
985.3,-62.05
985.4,-61.77
985.51,-62.05
985.61,-62.05
985.71,-62.33
985.81,-62.05
985.91,-61.77
986.01,-62.33
986.11,-62.05
986.21,-62.05
986.31,-61.77
986.41,-62.33
986.52,-62.33
986.62,-61.49
986.72,-61.77
986.82,-62.05
986.92,-61.77
987.02,-62.05
987.12,-62.05
987.22,-62.33
987.32,-61.77
987.42,-61.77
987.53,-62.05
987.63,-62.05
987.73,-61.77
987.83,-62.05
987.93,-62.33
988.03,-62.05
988.13,-62.05
988.23,-61.77
988.33,-62.05
988.44,-61.77
988.53,-61.77
988.64,-61.49
988.74,-62.05
988.84,-62.33
988.94,-61.49
989.04,-62.33
989.14,-62.05
989.24,-61.77
989.34,-62.05
989.45,-62.05
989.55,-62.05
989.65,-62.05
989.75,-61.49
989.85,-61.77
989.95,-61.77
990.05,-61.77
990.15,-61.49
990.25,-62.05
990.35,-62.05
990.45,-62.05
990.56,-61.49
990.66,-62.05
990.76,-62.05
990.86,-62.05
990.96,-62.05
991.06,-62.05
991.16,-62.05
991.26,-61.77
991.36,-61.77
991.47,-61.49
991.57,-62.05
991.67,-62.05
991.77,-61.49
991.87,-62.05
991.97,-61.77
992.07,-61.49
992.17,-61.49
992.27,-61.77
992.37,-61.77
992.47,-61.49
992.58,-62.05
992.68,-62.05
992.78,-61.77
992.88,-61.49
992.98,-62.05
993.08,-61.77
993.18,-61.77
993.28,-62.05
993.38,-61.77
993.48,-62.05
993.59,-61.49
993.69,-61.77
993.79,-61.77
993.89,-61.77
993.99,-61.77
994.09,-61.49
994.19,-61.77
994.29,-61.77
994.4,-61.49
994.5,-62.05
994.6,-61.77
994.7,-62.05
994.8,-61.77
994.9,-61.77
995,-62.33
995.1,-61.77
995.2,-61.77
995.3,-61.49
995.4,-61.49
995.51,-61.77
995.61,-61.77
995.71,-61.49
995.81,-61.77
995.91,-61.21
996.01,-61.77
996.11,-61.77
996.21,-61.49
996.31,-61.49
996.41,-61.49
996.52,-61.77
996.62,-61.21
996.72,-61.49
996.82,-61.77
996.92,-61.21
997.02,-61.49
997.12,-61.77
997.22,-61.49
997.32,-61.49
997.42,-61.49
997.53,-61.77
997.63,-61.49
997.73,-61.21
997.83,-61.77
997.93,-61.77
998.03,-61.77
998.13,-61.21
998.23,-61.77
998.33,-61.77
998.43,-61.49
998.54,-61.77
998.64,-61.49
998.74,-61.77
998.84,-61.49
998.94,-61.49
999.04,-61.77
999.14,-61.49
999.24,-61.21
999.34,-61.49
999.45,-61.77
999.55,-61.49
999.65,-60.93
999.75,-61.21
999.85,-61.77
999.95,-61.21
1000.05,-61.49
1001.05,-61.49
1002.05,-61.21
1003.05,-61.21
1004.05,-61.21
1005.06,-61.49
1006.06,-60.93
1007.06,-61.21
1008.06,-61.21
1009.06,-61.21
1010.06,-60.93
1011.06,-60.93
1012.06,-61.49
1013.07,-60.93
1014.07,-61.49
1015.07,-60.93
1016.07,-60.38
1017.07,-60.66
1018.07,-60.66
1019.07,-60.93
1020.07,-60.66
1021.07,-61.21
1022.07,-60.93
1023.08,-60.93
1024.08,-60.66
1025.08,-60.93
1026.08,-60.93
1027.08,-60.66
1028.08,-60.93
1029.08,-60.38
1030.08,-60.66
44255.33,-26.97
44283.09,-19.73
44283.19,-19.18
44283.29,-18.9
44283.39,-18.9
44283.49,-19.18
44283.59,-19.18
44283.69,-18.9
44283.8,-19.45
44283.9,-19.45
44284,-19.45
44284.1,-19.18
44284.2,-19.45
44284.3,-19.18
44284.4,-19.18
44284.5,-19.18
44284.6,-18.9
44284.7,-19.18
44284.81,-19.45
44284.91,-19.45
44285.01,-19.18
44285.11,-18.9
44285.21,-19.18
44285.31,-19.45
44285.41,-19.18
44285.51,-19.18
44285.61,-18.9
44285.71,-18.9
44285.82,-19.45
44285.92,-19.73
44286.02,-19.45
44286.12,-18.9
44286.22,-18.9
44286.32,-19.45
44286.42,-19.73
44286.52,-19.45
44286.62,-19.45
44286.72,-19.45
44286.83,-19.18
44286.93,-19.18
44287.03,-19.45
44287.13,-19.45
44287.23,-18.9
44287.33,-19.18
44287.43,-19.45
44287.53,-19.45
44287.63,-19.18
44287.73,-19.45
44287.84,-19.73
44287.94,-19.45
44288.04,-19.45
44288.14,-19.45
44288.24,-19.18
44288.34,-18.9
44288.44,-19.45
44288.54,-18.9
44288.64,-18.9
44288.74,-19.18
44288.85,-19.45
44288.95,-19.45
44289.05,-18.9
44289.15,-19.45
44289.25,-19.45
44289.35,-19.45
44289.45,-18.9
44289.55,-19.45
44289.65,-19.45
44289.75,-18.9
44289.86,-19.18
44289.96,-19.45
44290.06,-19.18
44290.16,-19.45
44290.26,-19.18
44290.36,-19.45
44290.46,-19.45
44290.56,-19.45
44290.66,-19.18
44290.76,-19.18
44290.86,-19.45
44290.96,-19.45
44291.07,-19.45
44291.17,-19.18
44291.27,-19.18
44291.37,-19.18
44291.47,-19.18
44291.57,-19.18
44291.67,-19.45
44291.77,-19.18
44291.87,-19.45
44291.97,-19.18
44292.08,-19.18
44292.18,-19.18
44292.28,-19.45
44292.38,-19.18
44292.48,-19.45
44292.58,-19.45
44292.68,-19.18
44292.78,-19.18
44292.88,-19.45
44292.98,-19.73
44293.09,-19.45
44293.19,-19.73
44293.29,-19.45
44293.39,-19.45
44293.49,-19.45
44293.59,-19.45
44293.69,-19.45
44293.79,-18.9
44293.89,-19.18
44293.99,-19.18
44294.1,-19.18
44294.2,-19.18
44294.3,-19.18
44294.4,-19.45
44294.5,-19.18
44294.6,-19.18
44294.7,-19.45
44294.8,-19.45
44294.9,-19.18
44295,-19.18
44295.11,-19.45
44295.21,-19.45
44295.31,-19.73
44295.41,-19.73
44295.51,-19.18
44295.61,-19.18
44295.71,-19.45
44295.81,-19.45
44295.91,-19.18
44296.01,-19.18
44296.11,-19.73
44296.21,-19.45
44296.32,-19.18
44296.42,-19.73
44296.52,-19.18
44296.62,-19.45
44296.72,-19.45
44296.82,-19.73
44296.92,-19.45
44297.02,-19.18
44297.12,-19.18
44297.22,-19.18
44297.33,-19.45
44297.43,-19.45
44297.53,-18.9
44297.63,-18.9
44297.73,-19.45
44297.83,-19.18
44297.93,-19.18
44298.03,-19.18
44298.13,-19.45
44298.23,-19.18
44298.34,-19.18
44298.44,-19.18
44298.54,-19.73
44298.64,-19.45
44298.74,-19.18
44298.84,-19.18
44298.94,-19.45
44299.04,-19.18
44299.14,-19.18
44299.24,-19.45
44299.35,-19.45
44299.45,-19.18
44299.55,-18.9
44299.65,-18.9
44299.75,-19.73
44299.85,-19.18
44299.95,-19.45
44300.05,-19.45
44300.15,-19.45
44300.25,-19.45
44300.36,-19.18
44300.46,-19.45
44300.56,-19.18
44300.66,-19.18
44300.76,-19.18
44300.86,-19.45
44300.96,-19.18
44301.06,-18.9
44301.16,-18.9
44301.26,-18.9
44301.36,-19.18
44301.46,-19.45
44301.57,-18.9
44301.67,-18.9
44301.77,-19.18
44301.87,-19.45
44301.97,-19.45
44302.07,-19.18
44302.17,-19.18
44302.27,-19.18
44302.37,-18.9
44302.47,-19.45
44302.58,-19.45
44302.68,-18.9
44302.78,-18.9
44302.88,-19.18
44302.98,-19.18
44303.08,-19.18
44303.18,-18.9
44303.28,-19.45
44303.38,-19.18
44303.48,-19.45
44303.59,-19.18
44303.69,-19.45
44303.79,-19.18
44303.89,-19.45
44303.99,-19.45
44304.09,-19.18
44304.19,-18.9
44304.29,-19.18
44304.39,-19.45
44304.49,-18.9
44304.6,-19.18
44304.7,-19.18
44304.8,-19.18
44304.9,-19.73
44305,-19.18
44305.1,-18.9
44305.2,-19.45
44305.3,-18.9
44305.4,-19.45
44305.5,-19.18
44305.61,-19.45
44305.71,-19.18
44305.81,-18.9
44305.91,-19.18
44306.01,-19.45
44306.11,-19.18
44306.21,-19.18
44306.31,-19.45
44306.41,-19.45
44306.51,-19.45
44306.61,-19.18
44306.71,-19.18
44306.82,-19.45
44306.92,-19.45
44307.02,-18.9
44307.12,-19.18
44307.22,-19.45
44307.32,-19.45
44307.42,-19.18
44307.52,-19.45
44307.62,-19.18
44307.73,-19.18
44307.83,-18.9
44307.93,-19.73
44308.03,-19.45
44308.13,-19.45
44308.23,-18.9
44308.33,-19.18
44308.43,-19.18
44308.53,-19.45
44308.63,-19.73
44308.73,-19.45
44308.84,-19.45
44308.94,-19.18
44309.04,-19.18
44309.14,-19.45
44309.24,-19.45
44309.34,-19.18
44309.44,-19.18
44309.54,-19.18
44309.64,-18.9
44309.74,-18.9
44309.85,-18.9
44309.95,-19.45
44310.05,-19.18
44310.15,-19.45
44310.25,-19.45
44310.35,-19.18
44310.45,-19.18
44310.55,-19.18
44310.65,-19.18
44310.75,-19.18
44310.86,-19.45
44310.96,-19.18
44311.06,-19.45
44311.16,-19.45
44311.26,-18.9
44311.36,-19.18
44311.46,-19.45
44311.56,-19.73
44311.66,-19.45
44311.76,-19.45
44311.87,-19.18
44311.97,-19.45
44312.07,-18.9
44312.17,-18.9
44312.27,-18.9
44312.37,-19.45
44312.47,-19.18
44312.57,-19.45
44312.67,-19.73
44312.77,-18.9
44312.87,-19.18
44312.98,-19.18
44313.08,-19.45
44313.18,-19.45
44313.28,-19.18
44313.38,-19.45
44313.48,-19.45
44313.58,-19.18
44313.68,-18.9
44313.78,-19.45
44313.88,-19.45
44313.98,-19.18
44314.09,-19.18
44314.19,-19.45
44314.29,-18.9
44314.39,-19.45
44314.49,-19.45
44314.59,-19.18
44314.69,-18.9
44314.79,-19.45
44314.89,-19.18
44314.99,-19.45
44315.1,-19.45
44315.2,-19.18
44315.3,-19.18
44315.4,-19.45
44315.5,-19.73
44315.6,-19.18
44315.7,-19.18
44315.8,-19.45
44315.9,-19.18
44316,-19.45
44316.11,-19.18
44316.21,-19.45
44316.31,-19.18
44316.41,-19.45
44316.51,-19.18
44316.61,-19.18
44316.71,-19.18
44316.81,-19.45
44316.91,-19.18
44317.01,-18.9
44317.12,-19.45
44317.22,-19.18
44317.32,-19.45
44317.42,-19.18
44317.52,-19.45
44317.62,-19.18
44317.72,-19.18
44317.82,-19.45
44317.92,-18.9
44318.02,-19.18
44318.12,-18.62
44318.23,-19.45
44318.33,-19.45
44318.43,-19.18
44318.53,-19.18
44318.63,-18.9
44318.73,-19.18
44318.83,-19.18
44318.93,-19.18
44319.03,-19.18
44319.13,-18.9
44319.23,-19.18
44319.34,-18.9
44319.44,-19.18
44319.54,-18.9
44319.64,-19.45
44319.74,-18.9
44319.84,-19.18
44319.94,-19.18
44320.04,-19.45
44320.14,-19.18
44320.24,-19.18
44320.34,-19.45
44320.45,-19.45
44320.55,-19.18
44320.65,-18.9
44320.75,-18.9
44320.85,-19.18
44320.95,-19.45
44321.05,-18.9
44321.15,-18.9
44321.26,-19.45
44321.35,-19.18
44321.46,-18.9
44321.56,-18.9
44321.66,-19.45
44321.76,-19.18
44321.86,-19.18
44321.96,-19.18
44322.06,-19.45
44322.16,-19.45
44322.26,-19.18
44322.37,-19.18
44322.47,-18.9
44322.57,-19.18
44322.67,-19.18
44322.77,-19.18
44322.87,-19.45
44322.97,-19.45
44323.07,-18.9
44323.17,-19.18
44323.27,-19.18
44323.37,-19.18
44323.48,-19.45
44323.58,-19.45
44323.68,-19.18
44323.78,-19.18
44323.88,-19.18
44323.98,-19.18
44324.08,-19.18
44324.18,-19.45
44324.28,-19.45
44324.38,-19.45
44324.48,-19.45
44324.59,-19.18
44324.69,-19.18
44324.79,-19.45
44324.89,-18.9
44324.99,-19.18
44325.09,-19.45
44325.19,-18.62
44325.29,-18.9
44325.39,-18.9
44325.49,-18.9
44325.59,-19.45
44325.7,-19.18
44325.8,-18.9
44325.9,-19.45
44326,-19.18
44326.1,-19.45
44326.2,-19.45
44326.3,-19.45
44326.4,-19.18
44326.51,-19.73
44326.6,-19.18
44326.71,-19.18
44326.81,-19.18
44326.91,-19.18
44327.01,-19.18
44327.11,-18.9
44327.21,-19.73
44327.31,-19.18
44327.41,-19.45
44327.51,-19.18
44327.62,-19.18
44327.72,-19.18
44327.82,-18.9
44327.92,-19.45
44328.02,-19.18
44328.12,-19.18
44328.22,-19.18
44328.32,-19.45
44328.42,-19.18
44328.52,-19.45
44328.62,-19.45
44328.73,-19.18
44328.83,-19.45
44328.93,-19.18
44329.03,-19.18
44329.13,-19.18
44329.23,-19.18
44329.33,-19.18
44329.43,-19.18
44329.53,-19.18
44329.63,-19.45
44329.73,-19.18
44329.84,-18.9
44329.94,-19.45
44330.04,-19.18
44330.14,-19.18
44330.24,-19.18
44330.34,-19.18
44330.44,-19.18
44330.54,-19.18
44330.64,-19.45
44330.74,-18.9
44330.85,-19.18
44330.95,-19.18
44331.05,-19.18
44331.15,-19.18
44331.25,-18.9
44331.35,-19.45
44331.45,-19.18
44331.55,-19.18
44331.65,-19.18
44331.76,-19.18
44331.86,-19.45
44331.96,-18.9
44332.06,-19.18
44332.16,-19.18
44332.26,-19.45
44332.36,-19.45
44332.46,-19.18
44332.56,-19.18
44332.66,-19.18
44332.76,-19.18
44332.87,-19.18
44332.97,-19.73
44333.07,-19.45
44333.17,-18.9
44333.27,-19.45
44333.37,-19.45
44333.47,-19.18
44333.57,-19.18
44333.67,-19.18
44333.77,-19.18
44333.87,-19.18
44333.98,-19.18
44334.08,-18.62
44334.18,-19.18
44334.28,-19.18
44334.38,-19.18
44334.48,-19.45
44334.58,-19.18
44334.68,-18.9
44334.78,-19.45
44334.88,-19.73
44334.98,-19.18
44335.09,-19.18
44335.19,-19.73
44335.29,-19.18
44335.39,-19.18
44335.49,-18.9
44335.59,-19.18
44335.69,-19.18
44335.79,-19.45
44335.89,-19.45
44335.99,-18.9
44336.1,-19.18
44336.2,-19.45
44336.3,-19.18
44336.4,-19.18
44336.5,-19.45
44336.6,-19.18
44336.7,-19.18
44336.8,-19.73
44336.9,-19.45
44337.01,-19.18
44337.11,-19.18
44337.21,-19.18
44337.31,-18.9
44337.41,-19.73
44337.51,-19.18
44337.61,-19.45
44337.71,-19.45
44337.81,-19.73
44337.91,-19.45
44338.01,-19.18
44338.12,-19.18
44338.22,-19.18
44338.32,-19.18
44338.42,-19.18
44338.52,-19.18
44338.62,-19.45
44338.72,-19.18
44338.82,-19.73
44338.92,-18.9
44339.02,-19.18
44339.12,-19.18
44339.23,-19.18
44339.33,-19.45
44339.43,-19.73
44339.53,-19.18
44339.63,-19.18
44339.73,-19.18
44339.83,-19.18
44339.93,-19.45
44340.03,-19.18
44340.13,-19.18
44340.23,-19.45
44340.34,-19.73
44340.44,-19.45
44340.54,-19.18
44340.64,-19.45
44340.74,-19.18
44340.84,-19.45
44340.94,-19.18
44341.04,-19.45
44341.14,-19.18
44341.24,-19.45
44341.35,-18.9
44341.45,-19.45
44341.55,-19.18
44341.65,-19.45
44341.75,-18.9
44341.85,-19.73
44341.95,-19.18
44342.05,-19.18
44342.15,-19.45
44342.26,-19.73
44342.36,-19.18
44342.46,-19.18
44342.56,-19.18
44342.66,-19.45
44342.76,-19.18
44342.86,-19.18
44342.96,-19.18
44343.06,-19.45
44343.16,-19.18
44343.26,-19.18
44343.37,-19.18
44343.47,-19.18
44343.57,-19.45
44343.67,-19.73
44343.77,-19.73
44343.87,-19.45
44343.97,-19.18
44344.07,-19.45
44344.17,-19.18
44344.27,-18.9
44344.38,-18.9
44344.48,-19.18
44344.58,-19.18
44344.68,-19.73
44344.78,-19.45
44344.88,-19.18
44344.98,-18.9
44345.08,-19.18
44345.18,-19.45
44345.28,-19.45
44345.38,-18.9
44345.49,-19.45
44345.59,-19.45
44345.69,-19.18
44345.79,-19.45
44345.89,-19.18
44345.99,-18.9
44346.09,-19.45
44346.19,-19.18
44346.29,-19.45
44346.39,-19.45
44346.5,-19.18
44346.6,-19.45
44346.7,-19.45
44346.8,-19.18
44346.9,-19.18
44347,-19.18
44347.1,-19.73
44347.2,-19.45
44347.3,-19.18
44347.4,-19.18
44347.51,-18.9
44347.61,-18.9
44347.71,-19.45
44347.81,-19.45
44347.91,-19.45
44348.01,-19.18
44348.11,-19.18
44348.21,-19.18
44348.31,-19.18
44348.41,-19.18
44348.52,-18.9
44348.62,-19.18
44348.72,-19.73
44348.82,-19.45
44348.92,-19.45
44349.02,-19.18
44349.12,-19.45
44349.22,-19.18
44349.32,-19.73
44349.42,-19.45
44349.52,-19.18
44349.63,-19.45
44349.73,-19.45
44349.83,-19.18
44349.93,-18.9
44350.03,-19.45
44350.13,-19.45
44350.23,-19.18
44350.33,-19.45
44350.43,-19.18
44350.53,-18.9
44350.63,-19.45
44350.74,-19.45
44350.84,-18.9
44350.94,-18.9
44351.04,-19.73
44351.14,-19.45
44351.24,-19.45
44351.34,-18.9
44351.44,-18.9
44351.54,-19.18
44351.64,-19.45
44351.75,-19.45
44351.85,-18.9
44351.95,-19.18
44352.05,-19.45
44352.15,-18.9
44352.25,-19.18
44352.35,-19.18
44352.45,-19.45
44352.55,-19.18
44352.65,-19.18
44352.76,-18.9
44352.86,-18.9
44352.96,-19.45
44353.06,-19.45
44353.16,-19.45
44353.26,-19.18
44353.36,-19.18
44353.46,-19.18
44353.56,-19.18
44353.66,-19.45
44353.77,-19.45
44353.87,-19.18
44353.97,-19.45
44354.07,-19.18
44354.17,-19.45
44354.27,-19.45
44354.37,-19.18
44354.47,-19.18
44354.57,-18.9
44354.67,-18.9
44354.77,-19.45
44354.88,-19.45
44354.98,-19.18
44355.08,-19.45
44355.18,-19.18
44355.28,-19.18
44355.38,-19.18
44355.48,-19.18
44355.58,-19.45
44355.68,-18.62
44355.78,-19.45
44355.89,-19.45
44355.99,-18.9
44356.09,-19.18
44356.19,-19.45
44356.29,-19.45
44356.39,-19.18
44356.49,-19.18
44356.59,-19.45
44356.69,-19.45
44356.79,-19.18
44356.9,-19.45
44357,-19.45
44357.1,-19.45
44357.2,-19.45
44357.3,-19.45
44357.4,-19.18
44357.5,-19.45
44357.6,-19.18
44357.7,-18.9
44357.8,-19.18
44357.91,-19.45
44358.01,-19.45
44358.11,-19.45
44358.21,-18.9
44358.31,-19.45
44358.41,-19.45
44358.51,-19.45
44358.61,-19.18
44358.71,-19.45
44358.81,-19.18
44358.92,-19.45
44359.02,-19.45
44359.12,-19.45
44359.22,-18.9
44359.32,-19.18
44359.42,-19.45
44359.52,-19.18
44359.62,-19.18
44359.72,-19.18
44359.83,-19.73
44359.93,-19.18
44360.03,-19.45
44360.13,-19.45
44360.23,-19.73
44360.33,-19.18
44360.43,-19.45
44360.53,-19.18
44360.63,-19.18
44360.73,-19.18
44360.83,-19.45
44360.94,-19.45
44361.04,-18.9
44361.14,-19.45
44361.24,-19.18
44361.34,-19.18
44361.44,-19.45
44361.54,-19.45
44361.64,-18.9
44361.74,-19.18
44361.84,-19.45
44361.95,-19.18
44362.05,-19.45
44362.15,-19.18
44362.25,-19.18
44362.35,-19.45
44362.45,-19.18
44362.55,-19.18
44362.65,-18.9
44362.75,-19.45
44362.86,-19.73
44362.96,-19.45
44363.06,-19.45
44363.16,-19.18
44363.26,-19.45
44363.36,-19.18
44363.46,-18.9
44363.56,-19.73
44363.66,-19.18
44363.76,-19.45
44363.87,-18.9
44363.97,-19.18
44364.07,-19.45
44364.17,-19.45
44364.27,-19.18
44364.37,-19.18
44364.47,-19.45
44364.57,-18.9
44364.67,-19.18
44364.77,-19.18
44364.88,-19.18
44364.98,-19.18
44365.08,-19.18
44365.18,-18.9
44365.28,-19.45
44365.38,-18.9
44365.48,-19.18
44365.58,-19.18
44365.68,-19.73
44365.78,-19.45
44365.89,-19.18
44365.99,-19.18
44366.09,-19.18
44366.19,-19.18
44366.29,-19.18
44366.39,-19.45
44366.49,-19.45
44366.59,-19.18
44366.69,-19.45
44366.79,-19.73
44366.9,-19.45
44367,-19.18
44367.1,-19.45
44367.2,-19.18
44367.3,-19.18
44367.4,-19.73
44367.5,-19.18
44367.6,-19.18
44367.7,-19.18
44367.8,-19.45
44367.91,-19.18
44368.01,-19.18
44368.11,-19.45
44368.21,-19.18
44368.31,-19.18
44368.41,-19.18
44368.51,-19.18
44368.61,-19.45
44368.71,-19.18
44368.81,-18.9
44368.92,-19.45
44369.02,-19.18
44369.12,-19.18
44369.22,-19.45
44369.32,-19.18
44369.42,-18.9
44369.52,-19.18
44369.62,-18.9
44369.72,-19.45
44369.83,-19.45
44369.93,-18.9
44370.03,-19.45
44370.13,-19.45
44370.23,-19.45
44370.33,-19.45
44370.43,-19.45
44370.53,-18.62
44370.63,-18.9
44370.73,-19.18
44370.84,-19.45
44370.94,-19.18
44371.04,-19.18
44371.14,-19.45
44371.24,-18.9
44371.34,-19.18
44371.44,-19.18
44371.54,-19.73
44371.64,-18.9
44371.74,-19.18
44371.84,-19.45
44371.95,-19.18
44372.05,-18.9
44372.15,-19.18
44372.25,-19.45
44372.35,-19.18
44372.45,-18.9
44372.55,-18.9
44372.65,-19.45
44372.76,-19.18
44372.85,-19.18
44372.96,-18.9
44373.06,-19.18
44373.16,-19.18
44373.26,-19.45
44373.36,-19.18
44373.46,-19.45
44373.56,-18.9
44373.66,-18.9
44373.76,-19.45
44373.87,-19.45
44373.97,-19.18
44374.07,-19.18
44374.17,-18.9
44374.27,-19.18
44374.37,-19.45
44374.47,-19.18
44374.57,-18.9
44374.67,-19.45
44374.77,-18.9
44374.87,-19.18
44374.98,-19.18
44375.08,-19.18
44375.18,-19.45
44375.28,-19.18
44375.38,-18.9
44375.48,-19.18
44375.58,-19.18
44375.68,-19.18
44375.78,-19.18
44375.89,-19.73
44375.99,-19.18
44376.09,-18.9
44376.19,-19.45
44376.29,-18.9
44376.39,-19.45
44376.49,-19.18
44376.59,-19.73
44376.69,-18.9
44376.79,-19.18
44376.9,-19.18
44377,-19.18
44377.1,-19.45
44377.2,-19.45
44377.3,-19.45
44377.4,-19.18
44377.5,-19.18
44377.6,-19.18
44377.7,-19.18
44377.8,-19.45
44377.91,-19.18
44378.01,-19.18
44378.11,-19.18
44378.21,-19.18
44378.31,-19.45
44378.41,-18.9
44378.51,-19.18
44378.61,-19.18
44378.71,-19.45
44378.81,-19.45
44378.92,-19.18
44379.02,-19.45
44379.12,-19.73
44379.22,-19.18
44379.32,-18.62
44379.42,-19.18
44379.52,-19.18
44379.62,-19.45
44379.72,-19.18
44379.83,-18.9
44379.93,-19.18
44380.03,-19.18
44380.13,-19.45
44380.23,-18.9
44380.33,-19.18
44380.43,-19.73
44380.53,-19.18
44380.63,-19.18
44380.73,-19.45
44380.83,-19.45
44380.94,-19.18
44381.04,-19.18
44381.14,-19.18
44381.24,-19.45
44381.34,-18.9
44381.44,-18.9
44381.54,-18.9
44381.64,-19.18
44381.74,-19.73
44381.85,-19.18
44381.95,-19.45
44382.05,-19.18
44382.15,-19.45
44382.25,-19.73
44382.35,-19.45
44382.45,-18.9
44382.55,-19.45
44382.65,-19.18
44382.75,-19.18
44382.85,-19.18
44382.96,-19.18
44383.06,-18.9
44383.16,-19.45
44383.26,-19.18
44383.36,-19.18
44383.46,-18.9
44383.56,-19.18
44383.66,-19.45
44383.77,-19.45
44383.87,-19.45
44383.97,-18.9
44384.07,-19.45
44384.17,-19.18
44384.27,-19.18
44384.37,-19.18
44384.47,-19.18
44384.57,-19.18
44384.67,-19.45
44384.77,-19.18
44384.88,-19.45
44384.98,-19.73
44385.08,-19.45
44385.18,-19.18
44385.28,-19.18
